OOIBase32 Version 2.0.6.5 Data File
++++++++++++++++++++++++++++++++++++
Date: 03-07-2023, 14:46:28
User: Valued Ocean Optics Customer
Spectrometer Serial Number: USB2E099
Spectrometer Channel: Master
Integration Time (msec): 4
Spectra Averaged: 10
Boxcar Smoothing: 0
Correct for Electrical Dark: Disabled
Time Normalized: Disabled
Dual-beam Reference: Disabled
Reference Channel: Master
Temperature: Not acquired
Spectrometer Type: S2000
ADC Type: USB2000
Number of Pixels in File: 2048
Graph Title: 
>>>>>Begin Spectral Data<<<<<
188.69	0.000
189.07	146.900
189.44	149.700
189.82	150.300
190.19	152.300
190.56	152.400
190.94	154.200
191.31	154.100
191.68	155.300
192.06	156.000
192.43	157.800
192.80	157.100
193.18	157.100
193.55	158.900
193.92	157.100
194.30	156.700
194.67	157.500
195.04	157.800
195.42	156.700
195.79	156.600
196.16	156.000
196.54	157.500
196.91	158.600
197.28	157.100
197.66	156.500
198.03	156.300
198.40	156.800
198.78	157.400
199.15	158.100
199.52	157.800
199.89	158.300
200.27	157.100
200.64	158.200
201.01	157.800
201.39	156.800
201.76	157.600
202.13	157.000
202.50	158.600
202.88	157.300
203.25	155.900
203.62	157.500
203.99	158.400
204.37	158.200
204.74	158.300
205.11	158.800
205.48	158.800
205.85	158.500
206.23	157.500
206.60	157.900
206.97	158.700
207.34	157.400
207.72	157.300
208.09	159.800
208.46	159.000
208.83	157.800
209.20	159.000
209.58	158.700
209.95	158.800
210.32	157.500
210.69	159.200
211.06	159.800
211.44	159.100
211.81	158.400
212.18	159.200
212.55	159.400
212.92	160.100
213.29	159.000
213.67	158.200
214.04	160.800
214.41	161.200
214.78	159.300
215.15	159.500
215.52	158.600
215.89	160.200
216.27	158.400
216.64	158.900
217.01	160.600
217.38	159.200
217.75	158.800
218.12	158.700
218.49	158.400
218.86	159.600
219.24	160.500
219.61	159.200
219.98	160.700
220.35	159.400
220.72	160.500
221.09	160.300
221.46	161.700
221.83	160.600
222.20	159.300
222.57	158.900
222.94	159.300
223.32	160.000
223.69	160.200
224.06	161.500
224.43	160.200
224.80	160.500
225.17	159.500
225.54	160.100
225.91	160.600
226.28	161.300
226.65	159.200
227.02	159.500
227.39	159.600
227.76	160.500
228.13	160.200
228.50	160.100
228.87	160.000
229.24	160.100
229.61	159.100
229.98	159.400
230.35	160.000
230.72	161.200
231.09	160.000
231.46	161.700
231.83	162.100
232.20	160.600
232.57	160.500
232.94	160.600
233.31	159.700
233.68	160.100
234.05	162.300
234.42	161.100
234.79	160.600
235.16	160.000
235.53	160.300
235.90	160.200
236.27	159.000
236.64	161.300
237.01	159.700
237.38	161.700
237.75	161.600
238.12	160.000
238.49	161.500
238.86	160.500
239.22	161.900
239.59	162.600
239.96	160.900
240.33	161.700
240.70	161.200
241.07	160.300
241.44	160.200
241.81	161.700
242.18	161.400
242.55	161.500
242.92	160.700
243.28	162.300
243.65	163.200
244.02	162.200
244.39	162.500
244.76	163.400
245.13	162.700
245.50	162.100
245.87	162.600
246.23	162.900
246.60	163.900
246.97	161.900
247.34	162.700
247.71	162.100
248.08	161.200
248.45	161.900
248.81	160.400
249.18	160.800
249.55	160.700
249.92	161.000
250.29	161.900
250.66	161.900
251.02	162.300
251.39	161.200
251.76	161.300
252.13	161.300
252.50	162.000
252.86	162.100
253.23	161.200
253.60	162.600
253.97	163.200
254.34	162.400
254.70	162.400
255.07	162.500
255.44	161.900
255.81	161.800
256.17	161.300
256.54	162.700
256.91	162.000
257.28	161.500
257.65	161.100
258.01	159.200
258.38	161.800
258.75	162.100
259.12	162.200
259.48	160.500
259.85	160.700
260.22	162.800
260.58	163.000
260.95	161.400
261.32	162.600
261.69	162.200
262.05	161.500
262.42	162.200
262.79	162.500
263.15	161.200
263.52	161.500
263.89	162.700
264.26	162.800
264.62	162.300
264.99	163.000
265.36	161.200
265.72	161.400
266.09	161.500
266.46	161.300
266.82	161.300
267.19	160.800
267.56	162.300
267.92	162.900
268.29	162.900
268.66	162.100
269.02	160.100
269.39	161.400
269.76	161.500
270.12	162.300
270.49	162.100
270.85	162.200
271.22	161.300
271.59	161.300
271.95	161.900
272.32	161.000
272.69	163.600
273.05	162.600
273.42	162.300
273.78	161.700
274.15	162.700
274.52	161.100
274.88	162.800
275.25	161.900
275.61	162.200
275.98	162.800
276.35	162.300
276.71	160.900
277.08	163.000
277.44	162.900
277.81	161.800
278.17	161.500
278.54	162.000
278.91	162.300
279.27	161.900
279.64	162.100
280.00	162.500
280.37	162.800
280.73	163.600
281.10	163.000
281.46	162.100
281.83	163.200
282.19	161.100
282.56	162.200
282.92	161.300
283.29	161.500
283.65	161.200
284.02	162.800
284.38	160.900
284.75	162.600
285.11	162.900
285.48	161.000
285.84	163.700
286.21	162.400
286.57	161.400
286.94	162.000
287.30	162.500
287.67	160.500
288.03	162.500
288.40	162.100
288.76	160.400
289.13	163.700
289.49	162.100
289.86	162.700
290.22	162.100
290.58	161.700
290.95	160.900
291.31	162.900
291.68	162.400
292.04	161.000
292.41	162.400
292.77	159.800
293.14	161.600
293.50	162.500
293.86	160.500
294.23	160.800
294.59	162.200
294.96	161.900
295.32	162.500
295.68	162.400
296.05	161.100
296.41	161.400
296.78	161.500
297.14	163.000
297.50	162.100
297.87	163.200
298.23	161.700
298.59	161.400
298.96	162.800
299.32	161.900
299.68	161.600
300.05	160.200
300.41	160.900
300.78	161.000
301.14	161.500
301.50	162.300
301.87	161.200
302.23	161.200
302.59	162.200
302.96	163.600
303.32	161.400
303.68	161.800
304.04	161.400
304.41	160.800
304.77	161.200
305.13	163.100
305.50	162.000
305.86	161.300
306.22	161.300
306.59	161.900
306.95	161.700
307.31	163.100
307.67	161.700
308.04	161.700
308.40	161.000
308.76	162.900
309.13	161.200
309.49	162.300
309.85	161.900
310.21	161.200
310.58	160.500
310.94	161.400
311.30	162.300
311.66	161.100
312.03	161.600
312.39	162.000
312.75	161.300
313.11	162.200
313.47	161.300
313.84	162.500
314.20	161.100
314.56	162.500
314.92	161.700
315.28	160.700
315.65	161.200
316.01	161.600
316.37	161.700
316.73	163.200
317.09	161.600
317.46	164.900
317.82	164.600
318.18	166.200
318.54	165.800
318.90	163.800
319.26	164.000
319.63	164.400
319.99	163.000
320.35	163.100
320.71	162.600
321.07	162.100
321.43	162.600
321.80	161.900
322.16	160.400
322.52	160.900
322.88	161.800
323.24	161.900
323.60	162.700
323.96	161.700
324.32	162.700
324.69	161.900
325.05	161.500
325.41	161.300
325.77	161.300
326.13	161.000
326.49	161.900
326.85	161.700
327.21	160.700
327.57	161.300
327.93	160.900
328.29	160.900
328.66	160.800
329.02	161.200
329.38	161.200
329.74	161.000
330.10	161.400
330.46	162.100
330.82	161.900
331.18	161.700
331.54	161.800
331.90	160.500
332.26	163.000
332.62	161.900
332.98	163.400
333.34	162.000
333.70	162.700
334.06	159.900
334.42	162.300
334.78	160.900
335.14	161.300
335.50	161.600
335.86	160.600
336.22	161.000
336.58	162.000
336.94	162.100
337.30	161.100
337.66	161.500
338.02	160.700
338.38	161.600
338.74	162.300
339.10	161.500
339.46	160.700
339.82	161.800
340.18	159.900
340.54	160.300
340.90	161.900
341.26	162.000
341.62	161.800
341.98	161.700
342.34	161.600
342.70	162.500
343.05	160.500
343.41	161.200
343.77	161.700
344.13	163.000
344.49	161.100
344.85	161.300
345.21	161.700
345.57	161.800
345.93	161.600
346.29	161.500
346.65	161.600
347.00	162.900
347.36	162.300
347.72	162.200
348.08	161.800
348.44	161.400
348.80	162.500
349.16	161.500
349.52	161.800
349.87	161.400
350.23	160.900
350.59	161.900
350.95	161.600
351.31	160.400
351.67	160.500
352.03	161.800
352.38	161.800
352.74	160.000
353.10	160.200
353.46	160.800
353.82	159.900
354.17	160.700
354.53	160.100
354.89	161.000
355.25	161.300
355.61	161.100
355.97	159.700
356.32	162.000
356.68	160.300
357.04	160.800
357.40	161.400
357.75	162.000
358.11	162.700
358.47	159.900
358.83	160.800
359.19	161.300
359.54	160.900
359.90	162.100
360.26	159.300
360.62	160.900
360.97	162.900
361.33	162.400
361.69	161.900
362.05	161.000
362.40	161.200
362.76	160.400
363.12	162.100
363.47	160.200
363.83	162.500
364.19	162.400
364.55	161.300
364.90	159.900
365.26	161.100
365.62	160.700
365.97	160.300
366.33	161.300
366.69	161.900
367.04	161.300
367.40	161.100
367.76	161.000
368.11	161.200
368.47	161.600
368.83	161.600
369.18	161.900
369.54	162.000
369.90	161.400
370.25	162.800
370.61	161.800
370.97	163.000
371.32	162.200
371.68	162.700
372.04	162.200
372.39	163.500
372.75	164.900
373.11	162.100
373.46	161.600
373.82	163.400
374.17	162.500
374.53	162.200
374.89	161.400
375.24	161.200
375.60	162.700
375.95	161.100
376.31	161.500
376.67	163.000
377.02	162.400
377.38	162.500
377.73	161.100
378.09	163.100
378.44	162.600
378.80	161.700
379.16	162.000
379.51	160.900
379.87	162.100
380.22	162.000
380.58	163.000
380.93	163.600
381.29	166.500
381.64	166.400
382.00	164.900
382.35	164.600
382.71	164.600
383.06	166.200
383.42	164.600
383.77	165.800
384.13	165.600
384.49	163.400
384.84	164.300
385.20	162.200
385.55	164.500
385.90	164.100
386.26	166.000
386.61	171.400
386.97	260.400
387.32	457.500
387.68	671.800
388.03	839.700
388.39	950.700
388.74	918.800
389.10	765.700
389.45	646.600
389.81	559.300
390.16	474.200
390.52	413.900
390.87	358.800
391.22	309.900
391.58	264.400
391.93	231.100
392.29	204.500
392.64	188.700
393.00	173.700
393.35	166.800
393.70	162.400
394.06	161.800
394.41	162.400
394.77	165.100
395.12	167.900
395.47	170.700
395.83	174.300
396.18	176.500
396.53	174.800
396.89	171.600
397.24	169.100
397.60	166.300
397.95	165.100
398.30	164.200
398.66	164.000
399.01	163.100
399.36	162.200
399.72	162.600
400.07	161.800
400.42	163.200
400.78	166.100
401.13	174.200
401.48	182.500
401.84	191.100
402.19	198.200
402.54	194.700
402.90	186.800
403.25	181.600
403.60	177.200
403.96	173.400
404.31	170.200
404.66	168.300
405.01	167.500
405.37	164.400
405.72	165.100
406.07	162.500
406.43	160.500
406.78	161.400
407.13	161.300
407.48	160.700
407.84	161.400
408.19	161.600
408.54	160.800
408.89	160.700
409.25	159.700
409.60	160.300
409.95	160.400
410.30	161.600
410.66	163.100
411.01	164.000
411.36	166.400
411.71	167.500
412.06	165.000
412.42	165.500
412.77	165.100
413.12	163.900
413.47	166.400
413.82	165.100
414.18	164.400
414.53	162.600
414.88	162.900
415.23	161.900
415.58	161.600
415.93	162.800
416.29	162.300
416.64	160.800
416.99	160.800
417.34	160.300
417.69	161.200
418.04	161.300
418.40	159.800
418.75	160.600
419.10	160.600
419.45	158.900
419.80	159.300
420.15	160.600
420.50	159.900
420.86	159.200
421.21	160.800
421.56	160.200
421.91	159.500
422.26	160.200
422.61	160.400
422.96	161.500
423.31	160.200
423.66	161.500
424.01	160.200
424.36	161.300
424.72	158.700
425.07	161.100
425.42	161.000
425.77	160.000
426.12	160.500
426.47	159.200
426.82	160.100
427.17	161.000
427.52	161.400
427.87	158.900
428.22	159.100
428.57	160.200
428.92	160.600
429.27	160.300
429.62	159.300
429.97	159.300
430.32	159.600
430.67	160.200
431.02	160.800
431.37	159.700
431.72	160.000
432.07	160.300
432.42	159.200
432.77	159.700
433.12	161.200
433.47	160.000
433.82	159.900
434.17	160.200
434.52	159.500
434.87	161.100
435.22	159.400
435.57	159.800
435.92	161.400
436.27	161.400
436.62	161.100
436.97	163.200
437.32	165.400
437.67	168.500
438.02	171.200
438.37	173.400
438.72	170.800
439.06	168.700
439.41	167.100
439.76	166.100
440.11	165.400
440.46	165.000
440.81	163.800
441.16	161.400
441.51	163.100
441.86	161.700
442.21	160.900
442.55	162.400
442.90	163.100
443.25	161.200
443.60	163.200
443.95	162.200
444.30	163.300
444.65	163.600
445.00	166.200
445.34	213.800
445.69	292.700
446.04	375.700
446.39	458.400
446.74	499.000
447.09	478.100
447.43	407.700
447.78	348.900
448.13	316.300
448.48	285.800
448.83	262.500
449.18	240.200
449.52	221.400
449.87	206.200
450.22	194.300
450.57	180.900
450.92	177.400
451.26	168.500
451.61	164.600
451.96	161.700
452.31	161.200
452.65	160.000
453.00	159.500
453.35	159.800
453.70	159.900
454.04	158.700
454.39	157.700
454.74	160.800
455.09	159.700
455.43	161.200
455.78	159.900
456.13	159.900
456.48	159.900
456.82	159.000
457.17	159.100
457.52	159.600
457.87	160.200
458.21	159.500
458.56	158.700
458.91	161.100
459.25	158.900
459.60	160.100
459.95	160.700
460.29	158.300
460.64	159.300
460.99	159.900
461.33	159.200
461.68	160.600
462.03	161.400
462.37	159.100
462.72	159.700
463.07	159.900
463.41	160.000
463.76	159.000
464.11	159.200
464.45	160.700
464.80	159.700
465.15	159.600
465.49	161.200
465.84	160.800
466.19	160.800
466.53	160.500
466.88	159.900
467.22	160.800
467.57	160.200
467.92	160.900
468.26	160.700
468.61	160.100
468.95	160.300
469.30	162.000
469.65	175.800
469.99	195.300
470.34	215.200
470.68	229.500
471.03	235.500
471.37	222.600
471.72	205.900
472.07	198.400
472.41	192.000
472.76	183.000
473.10	181.700
473.45	176.100
473.79	172.600
474.14	169.400
474.48	168.100
474.83	162.600
475.17	162.200
475.52	161.700
475.86	160.200
476.21	160.000
476.55	159.600
476.90	159.000
477.24	158.700
477.59	159.600
477.93	159.900
478.28	159.200
478.62	158.900
478.97	160.600
479.31	157.900
479.66	159.100
480.00	160.300
480.35	159.700
480.69	159.700
481.04	158.600
481.38	159.500
481.72	159.800
482.07	159.400
482.41	159.000
482.76	159.700
483.10	160.500
483.45	158.500
483.79	158.400
484.13	160.500
484.48	160.500
484.82	160.000
485.17	160.800
485.51	158.000
485.86	160.700
486.20	158.900
486.54	159.600
486.89	159.600
487.23	158.900
487.57	160.200
487.92	160.600
488.26	160.000
488.61	160.600
488.95	160.200
489.29	160.300
489.64	159.900
489.98	160.400
490.32	168.000
490.67	191.100
491.01	220.900
491.35	246.900
491.70	264.500
492.04	260.500
492.38	240.800
492.73	223.700
493.07	211.100
493.41	200.700
493.76	191.700
494.10	186.200
494.44	179.500
494.79	175.200
495.13	171.700
495.47	169.100
495.81	166.700
496.16	163.300
496.50	161.200
496.84	161.100
497.18	161.600
497.53	160.900
497.87	162.100
498.21	161.900
498.56	160.200
498.90	160.100
499.24	161.600
499.58	174.900
499.93	232.300
500.27	303.400
500.61	382.900
500.95	438.900
501.29	454.800
501.64	411.100
501.98	352.300
502.32	307.200
502.66	279.300
503.00	255.000
503.35	241.900
503.69	228.700
504.03	218.800
504.37	209.900
504.71	200.000
505.06	190.500
505.40	181.300
505.74	175.000
506.08	171.000
506.42	166.200
506.76	165.700
507.11	162.700
507.45	162.000
507.79	161.600
508.13	159.400
508.47	159.600
508.81	160.900
509.15	161.100
509.50	159.100
509.84	158.700
510.18	158.900
510.52	159.900
510.86	159.100
511.20	158.800
511.54	159.600
511.88	160.300
512.22	158.400
512.57	158.000
512.91	157.400
513.25	157.900
513.59	159.100
513.93	160.000
514.27	158.600
514.61	158.700
514.95	158.700
515.29	159.100
515.63	159.200
515.97	158.300
516.31	160.000
516.65	158.700
516.99	159.400
517.33	158.400
517.67	158.300
518.01	159.300
518.35	160.200
518.69	158.800
519.03	160.900
519.38	160.800
519.72	159.000
520.06	158.100
520.40	159.200
520.74	158.600
521.07	160.000
521.41	159.900
521.75	160.300
522.09	160.000
522.43	159.500
522.77	161.200
523.11	158.600
523.45	159.400
523.79	159.500
524.13	160.400
524.47	161.100
524.81	160.300
525.15	160.100
525.49	160.200
525.83	159.400
526.17	158.100
526.51	157.900
526.85	159.400
527.19	157.800
527.53	159.200
527.86	159.300
528.20	157.600
528.54	157.100
528.88	160.100
529.22	158.300
529.56	159.000
529.90	157.600
530.24	160.600
530.58	159.500
530.91	159.200
531.25	159.300
531.59	159.900
531.93	158.900
532.27	158.700
532.61	160.000
532.95	158.700
533.29	159.800
533.62	159.900
533.96	158.900
534.30	158.600
534.64	160.500
534.98	158.500
535.32	159.700
535.65	158.600
535.99	158.900
536.33	157.200
536.67	157.200
537.01	159.200
537.34	159.600
537.68	159.100
538.02	158.500
538.36	157.700
538.70	157.700
539.03	159.500
539.37	159.100
539.71	158.900
540.05	159.600
540.38	159.400
540.72	159.600
541.06	159.300
541.40	159.500
541.73	157.800
542.07	160.200
542.41	159.000
542.75	159.700
543.08	159.000
543.42	157.700
543.76	158.900
544.09	158.700
544.43	158.300
544.77	157.500
545.11	159.500
545.44	159.300
545.78	160.600
546.12	157.700
546.45	157.800
546.79	160.000
547.13	160.500
547.46	159.500
547.80	158.600
548.14	159.200
548.47	158.800
548.81	158.500
549.15	158.800
549.48	159.900
549.82	160.300
550.16	158.900
550.49	159.900
550.83	160.400
551.17	158.700
551.50	160.400
551.84	159.600
552.17	160.800
552.51	161.100
552.85	159.000
553.18	158.900
553.52	157.900
553.86	159.500
554.19	161.300
554.53	160.400
554.86	158.700
555.20	159.500
555.53	159.300
555.87	157.900
556.21	158.000
556.54	160.500
556.88	158.900
557.21	159.300
557.55	159.900
557.88	159.100
558.22	159.000
558.55	158.400
558.89	158.000
559.23	159.100
559.56	159.900
559.90	159.300
560.23	157.800
560.57	158.000
560.90	158.800
561.24	161.500
561.57	159.200
561.91	159.500
562.24	160.200
562.58	158.700
562.91	159.100
563.25	159.300
563.58	158.600
563.92	158.500
564.25	159.700
564.59	160.200
564.92	159.000
565.25	159.200
565.59	159.300
565.92	161.000
566.26	158.700
566.59	158.700
566.93	158.700
567.26	159.000
567.60	158.800
567.93	159.500
568.26	159.200
568.60	159.600
568.93	158.600
569.27	159.000
569.60	160.000
569.93	159.800
570.27	159.600
570.60	160.000
570.94	160.700
571.27	160.200
571.60	160.200
571.94	160.800
572.27	161.200
572.61	160.000
572.94	160.800
573.27	161.800
573.61	160.900
573.94	160.600
574.27	159.800
574.61	160.800
574.94	163.400
575.27	164.700
575.61	167.400
575.94	169.300
576.27	170.800
576.61	169.500
576.94	168.500
577.27	167.900
577.61	164.200
577.94	165.600
578.27	164.200
578.61	162.700
578.94	165.100
579.27	168.700
579.60	171.600
579.94	172.600
580.27	173.600
580.60	170.100
580.93	167.900
581.27	166.000
581.60	164.300
581.93	163.800
582.27	165.000
582.60	164.500
582.93	165.600
583.26	167.800
583.59	170.300
583.93	171.700
584.26	173.500
584.59	174.900
584.92	178.300
585.26	186.600
585.59	305.000
585.92	980.400
586.25	1849.800
586.58	2687.100
586.92	3071.900
587.25	3140.000
587.58	3023.100
587.91	2706.800
588.24	2086.000
588.57	1477.600
588.91	1181.400
589.24	967.700
589.57	805.300
589.90	674.800
590.23	574.400
590.56	478.400
590.90	401.300
591.23	333.900
591.56	282.300
591.89	242.600
592.22	211.300
592.55	187.600
592.88	174.200
593.21	165.500
593.55	165.800
593.88	163.400
594.21	162.700
594.54	161.500
594.87	160.500
595.20	163.500
595.53	161.600
595.86	162.400
596.19	160.600
596.52	160.900
596.85	159.600
597.19	159.100
597.52	159.300
597.85	161.300
598.18	159.600
598.51	159.300
598.84	160.800
599.17	159.100
599.50	158.100
599.83	161.200
600.16	160.500
600.49	159.200
600.82	159.300
601.15	160.200
601.48	159.200
601.81	160.300
602.14	160.300
602.47	159.600
602.80	160.100
603.13	159.700
603.46	158.800
603.79	160.300
604.12	159.900
604.45	158.100
604.78	157.600
605.11	158.500
605.44	158.800
605.77	160.400
606.10	160.600
606.43	159.400
606.76	157.700
607.08	158.600
607.41	159.900
607.74	160.400
608.07	159.800
608.40	159.700
608.73	158.400
609.06	158.900
609.39	159.800
609.72	159.600
610.05	157.800
610.38	159.100
610.71	158.900
611.03	158.200
611.36	159.900
611.69	158.000
612.02	160.600
612.35	158.000
612.68	158.900
613.01	158.900
613.33	159.200
613.66	159.000
613.99	160.200
614.32	159.100
614.65	159.000
614.98	159.000
615.31	159.100
615.63	160.000
615.96	158.800
616.29	159.700
616.62	157.900
616.95	158.000
617.27	158.400
617.60	158.600
617.93	159.000
618.26	158.800
618.59	159.100
618.91	157.900
619.24	158.800
619.57	159.100
619.90	159.200
620.23	159.100
620.55	160.200
620.88	159.600
621.21	159.800
621.54	159.500
621.86	159.600
622.19	159.000
622.52	159.800
622.85	160.500
623.17	158.600
623.50	159.100
623.83	160.000
624.15	158.500
624.48	158.000
624.81	158.800
625.14	159.000
625.46	159.100
625.79	160.300
626.12	160.600
626.44	157.900
626.77	159.500
627.10	158.100
627.42	160.200
627.75	158.700
628.08	159.300
628.40	157.800
628.73	159.700
629.06	159.300
629.38	159.300
629.71	158.300
630.04	160.200
630.36	158.300
630.69	158.700
631.02	159.300
631.34	161.000
631.67	159.400
631.99	157.800
632.32	159.300
632.65	158.600
632.97	157.700
633.30	159.500
633.62	158.300
633.95	159.500
634.28	159.100
634.60	158.900
634.93	159.400
635.25	158.900
635.58	159.700
635.91	158.600
636.23	158.100
636.56	159.000
636.88	159.600
637.21	159.300
637.53	157.900
637.86	158.600
638.18	157.400
638.51	158.100
638.83	160.000
639.16	157.500
639.48	159.000
639.81	161.000
640.13	161.100
640.46	160.800
640.78	160.500
641.11	158.400
641.43	158.400
641.76	159.200
642.08	159.400
642.41	159.800
642.73	158.700
643.06	161.000
643.38	159.200
643.71	158.300
644.03	158.000
644.36	159.500
644.68	158.700
645.01	157.800
645.33	159.200
645.66	159.900
645.98	159.100
646.30	159.300
646.63	159.700
646.95	158.600
647.28	158.900
647.60	157.300
647.92	159.600
648.25	158.900
648.57	158.600
648.90	158.700
649.22	160.500
649.54	158.600
649.87	157.900
650.19	158.600
650.52	159.000
650.84	158.600
651.16	159.400
651.49	159.700
651.81	160.200
652.13	159.500
652.46	158.200
652.78	158.500
653.10	158.900
653.43	158.300
653.75	158.000
654.07	158.000
654.40	159.000
654.72	158.900
655.04	159.300
655.37	158.300
655.69	158.700
656.01	158.300
656.34	158.200
656.66	159.800
656.98	158.900
657.30	160.000
657.63	160.900
657.95	160.200
658.27	161.200
658.60	162.800
658.92	162.800
659.24	161.900
659.56	161.200
659.89	161.300
660.21	160.500
660.53	160.600
660.85	161.900
661.17	162.400
661.50	161.900
661.82	161.700
662.14	161.200
662.46	161.200
662.79	160.800
663.11	159.700
663.43	160.500
663.75	160.900
664.07	160.700
664.40	160.400
664.72	160.000
665.04	163.700
665.36	163.800
665.68	165.100
666.00	207.800
666.33	341.700
666.65	478.900
666.97	614.000
667.29	717.700
667.61	729.000
667.93	640.300
668.25	509.100
668.58	408.200
668.90	341.600
669.22	294.000
669.54	264.300
669.86	243.300
670.18	229.800
670.50	211.200
670.82	201.600
671.15	192.300
671.47	180.500
671.79	173.600
672.11	169.800
672.43	166.200
672.75	161.200
673.07	160.900
673.39	160.300
673.71	159.900
674.03	160.200
674.35	158.700
674.67	159.500
674.99	160.100
675.31	158.300
675.63	157.200
675.95	158.000
676.27	159.200
676.59	158.500
676.92	158.400
677.24	159.000
677.56	157.600
677.88	159.500
678.20	158.200
678.52	159.000
678.84	158.400
679.16	157.900
679.47	159.000
679.79	159.300
680.11	160.000
680.43	159.500
680.75	158.100
681.07	157.800
681.39	160.000
681.71	158.100
682.03	157.500
682.35	159.000
682.67	157.400
682.99	158.700
683.31	157.700
683.63	157.900
683.95	158.600
684.27	158.500
684.59	158.600
684.91	160.600
685.22	158.800
685.54	158.700
685.86	159.200
686.18	159.200
686.50	160.100
686.82	157.800
687.14	158.800
687.46	159.600
687.78	157.900
688.09	159.300
688.41	160.400
688.73	160.200
689.05	158.900
689.37	159.100
689.69	159.900
690.01	158.400
690.32	159.000
690.64	159.500
690.96	157.800
691.28	158.300
691.60	158.900
691.91	159.400
692.23	158.100
692.55	160.200
692.87	159.400
693.19	159.600
693.50	158.800
693.82	157.600
694.14	158.800
694.46	158.900
694.78	158.700
695.09	158.400
695.41	160.100
695.73	159.000
696.05	157.300
696.36	158.000
696.68	160.600
697.00	158.400
697.32	158.900
697.63	160.700
697.95	162.000
698.27	161.100
698.59	160.700
698.90	160.800
699.22	161.900
699.54	160.500
699.85	159.400
700.17	161.500
700.49	160.700
700.80	163.200
701.12	162.200
701.44	160.000
701.75	161.100
702.07	159.800
702.39	160.600
702.70	161.300
703.02	160.600
703.34	162.300
703.65	165.000
703.97	164.900
704.29	165.500
704.60	183.900
704.92	336.900
705.24	588.600
705.55	821.600
705.87	1026.900
706.18	1128.900
706.50	1067.400
706.82	881.100
707.13	663.300
707.45	522.000
707.76	419.900
708.08	354.800
708.40	312.300
708.71	282.000
709.03	254.200
709.34	232.900
709.66	216.700
709.98	200.400
710.29	189.700
710.61	175.900
710.92	168.800
711.24	162.400
711.55	161.900
711.87	161.000
712.18	160.400
712.50	158.500
712.81	159.000
713.13	159.200
713.44	159.600
713.76	159.600
714.07	159.100
714.39	158.300
714.70	157.300
715.02	159.400
715.33	159.100
715.65	159.700
715.96	159.000
716.28	159.300
716.59	158.700
716.91	158.700
717.22	159.200
717.54	158.700
717.85	158.400
718.17	159.000
718.48	159.100
718.79	158.500
719.11	157.900
719.42	158.400
719.74	158.900
720.05	159.400
720.37	157.500
720.68	158.600
720.99	158.500
721.31	158.700
721.62	159.500
721.94	160.900
722.25	159.700
722.56	159.500
722.88	158.900
723.19	159.500
723.50	160.200
723.82	160.500
724.13	157.400
724.45	159.000
724.76	159.000
725.07	158.300
725.39	158.600
725.70	159.100
726.01	159.700
726.33	161.200
726.64	178.600
726.95	200.800
727.27	221.600
727.58	238.300
727.89	246.200
728.20	237.200
728.52	215.800
728.83	200.800
729.14	188.100
729.46	182.500
729.77	173.700
730.08	172.100
730.39	168.700
730.71	166.000
731.02	164.900
731.33	162.000
731.64	160.300
731.96	159.200
732.27	158.300
732.58	158.900
732.89	158.700
733.21	158.300
733.52	158.700
733.83	157.900
734.14	158.500
734.46	159.400
734.77	158.400
735.08	159.200
735.39	159.400
735.70	158.500
736.02	158.400
736.33	157.200
736.64	158.200
736.95	159.000
737.26	157.800
737.57	158.300
737.89	157.700
738.20	157.700
738.51	158.800
738.82	156.800
739.13	157.300
739.44	158.400
739.75	158.100
740.07	158.400
740.38	158.200
740.69	158.500
741.00	157.400
741.31	157.300
741.62	158.600
741.93	159.800
742.24	158.800
742.56	157.200
742.87	158.200
743.18	159.100
743.49	158.600
743.80	159.000
744.11	159.200
744.42	158.500
744.73	159.100
745.04	157.800
745.35	158.800
745.66	158.300
745.97	157.100
746.28	158.300
746.59	159.300
746.90	158.800
747.21	158.500
747.52	158.700
747.83	158.500
748.14	158.500
748.45	158.800
748.76	158.700
749.07	158.700
749.38	159.900
749.69	158.200
750.00	157.900
750.31	158.900
750.62	159.900
750.93	160.200
751.24	158.100
751.55	158.700
751.86	158.200
752.17	158.700
752.48	159.500
752.79	158.300
753.10	159.300
753.41	159.100
753.72	158.600
754.03	157.600
754.34	159.300
754.65	159.500
754.96	157.900
755.27	157.800
755.57	157.500
755.88	159.000
756.19	158.000
756.50	158.200
756.81	158.500
757.12	158.300
757.43	157.000
757.74	158.700
758.05	158.600
758.35	159.800
758.66	158.600
758.97	159.300
759.28	159.100
759.59	159.800
759.90	158.300
760.20	156.900
760.51	157.600
760.82	158.500
761.13	159.400
761.44	158.900
761.75	158.800
762.05	158.000
762.36	158.000
762.67	158.800
762.98	159.000
763.29	158.400
763.59	158.500
763.90	159.300
764.21	159.000
764.52	157.900
764.82	159.900
765.13	159.000
765.44	159.400
765.75	158.700
766.06	157.100
766.36	157.800
766.67	157.600
766.98	155.200
767.28	157.700
767.59	158.200
767.90	158.500
768.21	161.500
768.51	159.000
768.82	158.800
769.13	157.400
769.43	158.500
769.74	158.000
770.05	157.900
770.36	158.600
770.66	158.700
770.97	158.400
771.28	159.000
771.58	159.100
771.89	158.300
772.20	158.500
772.50	158.800
772.81	157.700
773.12	157.900
773.42	157.300
773.73	158.700
774.03	159.100
774.34	159.700
774.65	158.000
774.95	158.400
775.26	158.500
775.57	159.400
775.87	159.000
776.18	157.100
776.48	158.800
776.79	159.000
777.09	160.200
777.40	158.100
777.71	158.500
778.01	157.300
778.32	157.100
778.62	158.400
778.93	157.700
779.23	158.300
779.54	157.600
779.85	158.300
780.15	157.700
780.46	159.000
780.76	158.600
781.07	158.400
781.37	159.700
781.68	159.400
781.98	156.900
782.29	159.300
782.59	158.000
782.90	157.900
783.20	159.500
783.51	156.900
783.81	158.500
784.12	159.000
784.42	158.900
784.73	157.600
785.03	157.500
785.34	160.000
785.64	158.500
785.94	157.900
786.25	157.700
786.55	158.800
786.86	158.900
787.16	158.400
787.47	156.900
787.77	159.500
788.07	159.600
788.38	157.500
788.68	157.600
788.99	158.000
789.29	158.700
789.60	158.700
789.90	159.000
790.20	157.500
790.51	157.500
790.81	158.400
791.11	157.300
791.42	159.000
791.72	157.900
792.03	156.700
792.33	157.900
792.63	158.600
792.94	158.000
793.24	157.400
793.54	158.700
793.85	158.900
794.15	158.500
794.45	158.000
794.76	158.000
795.06	158.000
795.36	159.700
795.66	158.300
795.97	156.500
796.27	157.000
796.57	157.600
796.88	157.300
797.18	158.200
797.48	158.100
797.78	158.300
798.09	159.000
798.39	160.100
798.69	158.800
798.99	159.400
799.30	160.000
799.60	158.500
799.90	158.200
800.20	157.600
800.51	157.000
800.81	158.000
801.11	158.400
801.41	159.500
801.72	158.200
802.02	157.900
802.32	157.200
802.62	158.700
802.92	158.900
803.23	158.600
803.53	158.900
803.83	158.600
804.13	157.300
804.43	156.700
804.73	156.700
805.04	158.200
805.34	157.300
805.64	157.900
805.94	159.400
806.24	158.800
806.54	158.600
806.84	158.800
807.15	157.500
807.45	157.300
807.75	157.300
808.05	159.000
808.35	158.200
808.65	158.200
808.95	158.300
809.25	157.900
809.55	158.800
809.85	157.800
810.16	157.200
810.46	158.500
810.76	158.100
811.06	158.200
811.36	157.600
811.66	157.100
811.96	158.400
812.26	158.900
812.56	157.100
812.86	159.100
813.16	158.000
813.46	158.600
813.76	158.300
814.06	157.700
814.36	157.800
814.66	157.700
814.96	157.600
815.26	158.800
815.56	157.600
815.86	157.100
816.16	156.100
816.46	157.300
816.76	158.100
817.06	158.500
817.36	157.000
817.66	159.000
817.96	157.700
818.26	156.600
818.56	157.600
818.86	157.800
819.16	157.300
819.46	157.900
819.76	157.400
820.05	159.700
820.35	158.700
820.65	158.800
820.95	158.500
821.25	158.300
821.55	157.100
821.85	158.900
822.15	158.600
822.45	156.200
822.75	157.800
823.04	158.000
823.34	157.300
823.64	157.700
823.94	159.200
824.24	158.000
824.54	157.500
824.84	157.000
825.13	158.200
825.43	159.200
825.73	159.300
826.03	155.800
826.33	158.200
826.63	158.800
826.92	157.900
827.22	157.900
827.52	157.300
827.82	159.100
828.12	158.900
828.41	157.400
828.71	159.100
829.01	159.500
829.31	159.000
829.61	156.800
829.90	158.900
830.20	158.100
830.50	158.400
830.80	158.600
831.09	158.500
831.39	158.300
831.69	156.200
831.99	158.100
832.28	158.400
832.58	158.600
832.88	157.200
833.17	158.100
833.47	158.300
833.77	158.400
834.07	158.500
834.36	157.200
834.66	157.200
834.96	157.300
835.25	158.500
835.55	159.300
835.85	157.600
836.14	157.500
836.44	157.600
836.74	159.300
837.03	158.600
837.33	158.600
837.63	160.100
837.92	158.100
838.22	159.000
838.52	157.800
838.81	158.800
839.11	158.600
839.40	159.200
839.70	159.100
840.00	158.100
840.29	157.500
840.59	158.700
840.88	156.500
841.18	156.800
841.48	158.900
841.77	159.500
842.07	159.700
842.36	157.200
842.66	158.200
842.95	159.100
843.25	159.300
843.55	157.700
843.84	157.600
844.14	157.800
844.43	157.800
844.73	158.700
845.02	158.700
845.32	158.700
845.61	157.900
845.91	158.600
846.20	158.000
846.50	157.000
846.79	157.100
847.09	158.400
847.38	159.400
847.68	159.200
847.97	157.700
848.27	158.500
848.56	157.900
848.86	158.100
849.15	158.000
849.45	157.200
849.74	159.400
850.03	157.400
850.33	157.600
850.62	158.300
850.92	158.200
851.21	157.900
851.51	158.700
851.80	158.400
852.09	158.500
852.39	159.000
852.68	157.100
852.98	158.600
853.27	159.000
853.56	157.600
853.86	158.300
854.15	159.300
854.45	158.600
854.74	159.100
855.03	159.200
855.33	157.900
855.62	158.800
855.91	160.300
856.21	158.400
856.50	158.400
856.79	158.000
857.09	158.500
857.38	159.000
857.67	158.700
857.97	158.100
858.26	157.500
858.55	158.000
858.85	159.100
859.14	158.800
859.43	158.100
859.72	159.400
860.02	158.200
860.31	156.300
860.60	157.500
860.90	157.900
861.19	159.000
861.48	158.900
861.77	159.500
862.07	158.600
862.36	158.900
862.65	158.000
862.94	159.300
863.23	158.000
863.53	157.200
863.82	158.400
864.11	157.000
864.40	159.200
864.70	158.200
864.99	158.100
865.28	157.100
865.57	158.600
865.86	158.800
866.16	157.200
866.45	158.100
866.74	157.500
867.03	158.200
867.32	157.100
867.61	158.100
867.90	158.100
868.20	157.400
868.49	157.700
868.78	157.900
869.07	160.000
869.36	158.200
869.65	158.000
869.94	158.000
870.24	157.800
870.53	158.000
870.82	158.900
871.11	157.700
871.40	159.200
871.69	158.100
871.98	160.500
872.27	158.000
872.56	157.200
872.85	158.600
873.14	158.900
873.43	158.200
873.72	160.100
874.02	158.100
>>>>>End Spectral Data<<<<<
