OOIBase32 Version 2.0.6.5 Data File
++++++++++++++++++++++++++++++++++++
Date: 03-07-2023, 14:30:46
User: Valued Ocean Optics Customer
Spectrometer Serial Number: USB2E099
Spectrometer Channel: Master
Integration Time (msec): 5
Spectra Averaged: 10
Boxcar Smoothing: 0
Correct for Electrical Dark: Disabled
Time Normalized: Disabled
Dual-beam Reference: Disabled
Reference Channel: Master
Temperature: Not acquired
Spectrometer Type: S2000
ADC Type: USB2000
Number of Pixels in File: 2048
Graph Title: 
>>>>>Begin Spectral Data<<<<<
188.69	0.000
189.07	153.400
189.44	156.800
189.82	158.000
190.19	158.200
190.56	160.200
190.94	161.500
191.31	162.200
191.68	161.600
192.06	161.500
192.43	164.200
192.80	164.200
193.18	163.200
193.55	162.800
193.92	161.900
194.30	164.300
194.67	163.100
195.04	163.100
195.42	162.300
195.79	161.700
196.16	162.700
196.54	163.700
196.91	163.300
197.28	163.500
197.66	162.700
198.03	163.200
198.40	163.300
198.78	163.600
199.15	164.900
199.52	163.300
199.89	164.700
200.27	164.700
200.64	163.700
201.01	162.200
201.39	164.300
201.76	163.200
202.13	163.800
202.50	163.400
202.88	164.000
203.25	163.400
203.62	165.100
203.99	164.400
204.37	163.200
204.74	164.600
205.11	164.000
205.48	163.800
205.85	165.300
206.23	164.500
206.60	163.900
206.97	163.400
207.34	163.200
207.72	165.400
208.09	164.400
208.46	162.900
208.83	165.100
209.20	164.600
209.58	165.100
209.95	165.600
210.32	165.600
210.69	164.800
211.06	165.200
211.44	164.600
211.81	162.400
212.18	166.000
212.55	164.600
212.92	166.100
213.29	163.900
213.67	164.500
214.04	164.000
214.41	165.700
214.78	165.200
215.15	165.400
215.52	165.800
215.89	165.800
216.27	166.000
216.64	165.100
217.01	166.000
217.38	166.000
217.75	164.400
218.12	164.900
218.49	165.400
218.86	164.700
219.24	166.000
219.61	164.400
219.98	164.000
220.35	166.300
220.72	165.500
221.09	166.300
221.46	166.400
221.83	164.900
222.20	165.400
222.57	165.900
222.94	165.700
223.32	165.500
223.69	165.400
224.06	165.400
224.43	166.300
224.80	165.300
225.17	165.400
225.54	165.300
225.91	165.500
226.28	167.700
226.65	166.000
227.02	165.400
227.39	164.600
227.76	165.900
228.13	164.800
228.50	166.700
228.87	166.500
229.24	165.400
229.61	167.000
229.98	167.200
230.35	166.900
230.72	169.100
231.09	166.500
231.46	166.700
231.83	165.800
232.20	166.300
232.57	166.500
232.94	166.900
233.31	166.100
233.68	165.200
234.05	166.000
234.42	166.800
234.79	164.800
235.16	166.800
235.53	167.600
235.90	167.100
236.27	166.600
236.64	166.200
237.01	167.400
237.38	166.400
237.75	168.300
238.12	167.000
238.49	166.800
238.86	166.500
239.22	167.500
239.59	168.800
239.96	166.200
240.33	168.200
240.70	166.100
241.07	168.500
241.44	167.600
241.81	168.300
242.18	168.100
242.55	166.700
242.92	166.900
243.28	168.000
243.65	167.600
244.02	166.100
244.39	168.000
244.76	166.800
245.13	166.500
245.50	167.100
245.87	166.200
246.23	168.300
246.60	166.200
246.97	166.700
247.34	166.600
247.71	166.300
248.08	166.600
248.45	168.000
248.81	166.200
249.18	166.200
249.55	167.600
249.92	167.300
250.29	170.100
250.66	168.100
251.02	168.200
251.39	166.200
251.76	167.700
252.13	167.800
252.50	166.700
252.86	167.700
253.23	167.000
253.60	167.300
253.97	167.200
254.34	168.600
254.70	168.200
255.07	167.800
255.44	167.500
255.81	168.000
256.17	168.200
256.54	167.300
256.91	168.900
257.28	170.200
257.65	166.600
258.01	167.500
258.38	169.100
258.75	167.800
259.12	168.300
259.48	167.800
259.85	169.300
260.22	167.400
260.58	168.300
260.95	167.000
261.32	169.000
261.69	167.800
262.05	166.500
262.42	167.800
262.79	168.000
263.15	167.800
263.52	169.600
263.89	168.000
264.26	167.100
264.62	167.700
264.99	167.200
265.36	167.700
265.72	167.800
266.09	167.500
266.46	167.700
266.82	168.500
267.19	168.500
267.56	168.300
267.92	168.400
268.29	169.400
268.66	168.700
269.02	166.900
269.39	167.600
269.76	167.900
270.12	168.300
270.49	168.300
270.85	166.500
271.22	168.100
271.59	168.300
271.95	166.800
272.32	167.000
272.69	167.400
273.05	167.400
273.42	168.700
273.78	168.800
274.15	168.700
274.52	167.200
274.88	168.300
275.25	167.600
275.61	169.000
275.98	167.900
276.35	169.100
276.71	169.200
277.08	168.400
277.44	168.000
277.81	167.100
278.17	167.800
278.54	168.000
278.91	166.300
279.27	168.900
279.64	167.400
280.00	169.200
280.37	167.100
280.73	169.100
281.10	167.700
281.46	168.500
281.83	167.700
282.19	168.000
282.56	168.100
282.92	168.600
283.29	167.100
283.65	166.600
284.02	167.900
284.38	168.200
284.75	168.600
285.11	167.100
285.48	167.700
285.84	168.400
286.21	168.600
286.57	168.500
286.94	168.500
287.30	170.400
287.67	168.000
288.03	168.700
288.40	166.900
288.76	167.700
289.13	167.300
289.49	165.900
289.86	167.900
290.22	167.900
290.58	167.200
290.95	168.500
291.31	167.300
291.68	166.600
292.04	168.300
292.41	167.900
292.77	168.100
293.14	168.300
293.50	167.500
293.86	168.900
294.23	168.300
294.59	167.200
294.96	168.300
295.32	167.600
295.68	168.900
296.05	167.500
296.41	168.000
296.78	166.700
297.14	167.200
297.50	168.000
297.87	167.400
298.23	165.700
298.59	166.600
298.96	168.500
299.32	167.300
299.68	169.200
300.05	167.900
300.41	167.700
300.78	166.500
301.14	168.400
301.50	168.900
301.87	166.500
302.23	167.100
302.59	167.200
302.96	167.200
303.32	168.000
303.68	168.400
304.04	169.000
304.41	168.200
304.77	169.400
305.13	168.200
305.50	167.600
305.86	167.500
306.22	167.500
306.59	167.100
306.95	168.100
307.31	166.500
307.67	167.300
308.04	167.500
308.40	166.900
308.76	168.100
309.13	167.000
309.49	166.900
309.85	167.200
310.21	166.600
310.58	167.600
310.94	168.200
311.30	169.000
311.66	168.400
312.03	169.100
312.39	168.000
312.75	166.500
313.11	168.500
313.47	168.300
313.84	167.300
314.20	167.200
314.56	167.200
314.92	167.800
315.28	167.600
315.65	168.400
316.01	167.300
316.37	168.200
316.73	168.500
317.09	167.800
317.46	167.900
317.82	166.700
318.18	167.000
318.54	168.900
318.90	168.300
319.26	167.900
319.63	166.700
319.99	168.200
320.35	167.300
320.71	166.300
321.07	166.700
321.43	167.300
321.80	166.600
322.16	168.200
322.52	169.500
322.88	168.000
323.24	168.300
323.60	167.500
323.96	167.600
324.32	167.200
324.69	166.900
325.05	166.000
325.41	166.000
325.77	167.000
326.13	168.100
326.49	166.600
326.85	167.000
327.21	166.500
327.57	166.700
327.93	167.100
328.29	166.600
328.66	167.500
329.02	168.900
329.38	167.900
329.74	167.400
330.10	167.900
330.46	165.900
330.82	168.000
331.18	167.500
331.54	168.800
331.90	166.800
332.26	166.900
332.62	167.000
332.98	166.500
333.34	166.900
333.70	166.500
334.06	166.500
334.42	165.800
334.78	167.100
335.14	167.100
335.50	167.400
335.86	168.500
336.22	168.000
336.58	168.300
336.94	169.200
337.30	168.600
337.66	169.000
338.02	168.300
338.38	168.100
338.74	167.500
339.10	166.600
339.46	167.100
339.82	167.700
340.18	167.900
340.54	168.300
340.90	168.800
341.26	171.000
341.62	168.600
341.98	168.000
342.34	168.400
342.70	169.900
343.05	169.100
343.41	172.900
343.77	171.200
344.13	173.200
344.49	174.800
344.85	174.800
345.21	176.100
345.57	176.500
345.93	177.900
346.29	178.800
346.65	179.000
347.00	175.300
347.36	175.000
347.72	173.700
348.08	170.800
348.44	171.900
348.80	173.300
349.16	171.400
349.52	173.000
349.87	171.700
350.23	173.300
350.59	173.100
350.95	174.000
351.31	175.900
351.67	172.900
352.03	173.300
352.38	172.900
352.74	169.900
353.10	171.100
353.46	169.200
353.82	169.900
354.17	170.300
354.53	167.400
354.89	167.500
355.25	167.900
355.61	167.500
355.97	167.200
356.32	169.300
356.68	168.800
357.04	168.200
357.40	167.400
357.75	169.800
358.11	169.200
358.47	171.300
358.83	173.800
359.19	170.900
359.54	170.300
359.90	170.000
360.26	169.200
360.62	168.600
360.97	168.900
361.33	169.300
361.69	168.900
362.05	167.700
362.40	167.700
362.76	168.000
363.12	168.400
363.47	167.900
363.83	167.400
364.19	166.900
364.55	168.000
364.90	168.200
365.26	168.700
365.62	165.900
365.97	167.000
366.33	167.900
366.69	166.500
367.04	165.800
367.40	166.700
367.76	168.900
368.11	166.900
368.47	169.500
368.83	168.600
369.18	168.100
369.54	168.300
369.90	166.900
370.25	167.800
370.61	167.400
370.97	168.700
371.32	164.900
371.68	167.600
372.04	166.400
372.39	168.900
372.75	167.400
373.11	167.600
373.46	166.800
373.82	166.100
374.17	167.000
374.53	167.800
374.89	167.700
375.24	167.200
375.60	167.100
375.95	166.100
376.31	167.600
376.67	165.600
377.02	166.300
377.38	166.300
377.73	166.200
378.09	166.200
378.44	165.700
378.80	166.300
379.16	166.000
379.51	167.000
379.87	167.800
380.22	165.800
380.58	166.700
380.93	167.100
381.29	165.900
381.64	165.900
382.00	166.800
382.35	165.600
382.71	166.100
383.06	166.000
383.42	165.700
383.77	167.300
384.13	165.900
384.49	165.300
384.84	166.000
385.20	166.400
385.55	166.500
385.90	165.900
386.26	166.200
386.61	166.500
386.97	166.600
387.32	166.600
387.68	166.400
388.03	166.300
388.39	167.200
388.74	166.100
389.10	166.000
389.45	165.800
389.81	166.600
390.16	167.300
390.52	164.100
390.87	165.600
391.22	166.300
391.58	165.300
391.93	165.400
392.29	167.300
392.64	167.200
393.00	166.000
393.35	166.000
393.70	166.200
394.06	166.500
394.41	165.600
394.77	167.000
395.12	166.800
395.47	165.900
395.83	165.500
396.18	165.800
396.53	166.900
396.89	167.200
397.24	165.800
397.60	165.200
397.95	165.300
398.30	166.300
398.66	165.900
399.01	165.300
399.36	166.700
399.72	165.400
400.07	165.800
400.42	167.400
400.78	164.800
401.13	165.800
401.48	166.600
401.84	165.400
402.19	167.000
402.54	166.300
402.90	165.200
403.25	166.400
403.60	165.600
403.96	165.500
404.31	166.200
404.66	167.500
405.01	165.600
405.37	164.700
405.72	165.100
406.07	164.600
406.43	166.500
406.78	163.900
407.13	165.300
407.48	167.300
407.84	166.000
408.19	165.200
408.54	167.800
408.89	165.900
409.25	164.800
409.60	165.300
409.95	166.400
410.30	165.800
410.66	165.500
411.01	164.700
411.36	166.500
411.71	168.000
412.06	166.500
412.42	165.900
412.77	164.200
413.12	164.900
413.47	164.600
413.82	166.100
414.18	167.000
414.53	166.000
414.88	165.200
415.23	164.900
415.58	165.000
415.93	165.800
416.29	165.800
416.64	166.000
416.99	166.300
417.34	164.800
417.69	167.100
418.04	166.300
418.40	166.500
418.75	165.900
419.10	166.200
419.45	166.200
419.80	165.800
420.15	167.500
420.50	165.600
420.86	165.300
421.21	167.300
421.56	165.200
421.91	165.400
422.26	166.100
422.61	165.200
422.96	166.900
423.31	167.200
423.66	164.700
424.01	164.000
424.36	165.700
424.72	166.900
425.07	168.100
425.42	167.000
425.77	165.200
426.12	166.100
426.47	166.200
426.82	166.600
427.17	166.100
427.52	165.700
427.87	165.200
428.22	167.200
428.57	167.800
428.92	166.300
429.27	168.300
429.62	165.900
429.97	166.400
430.32	166.000
430.67	165.100
431.02	165.500
431.37	166.200
431.72	165.400
432.07	164.900
432.42	165.800
432.77	164.900
433.12	166.000
433.47	164.600
433.82	166.300
434.17	165.900
434.52	165.700
434.87	166.200
435.22	166.600
435.57	166.100
435.92	165.300
436.27	165.700
436.62	165.300
436.97	166.000
437.32	166.100
437.67	167.700
438.02	165.300
438.37	165.200
438.72	165.900
439.06	166.600
439.41	165.100
439.76	165.200
440.11	165.500
440.46	165.600
440.81	164.500
441.16	164.400
441.51	166.400
441.86	165.200
442.21	165.200
442.55	165.800
442.90	165.600
443.25	166.000
443.60	164.800
443.95	166.600
444.30	165.400
444.65	164.700
445.00	166.500
445.34	165.500
445.69	165.200
446.04	163.800
446.39	165.200
446.74	166.700
447.09	165.900
447.43	165.500
447.78	167.000
448.13	164.600
448.48	165.400
448.83	166.100
449.18	166.200
449.52	164.700
449.87	164.800
450.22	166.200
450.57	164.900
450.92	164.000
451.26	165.100
451.61	166.100
451.96	165.200
452.31	166.100
452.65	164.400
453.00	164.700
453.35	165.600
453.70	165.300
454.04	166.300
454.39	166.200
454.74	166.100
455.09	165.800
455.43	166.800
455.78	166.400
456.13	165.900
456.48	166.000
456.82	167.200
457.17	166.600
457.52	165.200
457.87	166.300
458.21	165.400
458.56	165.500
458.91	166.500
459.25	165.300
459.60	165.000
459.95	164.700
460.29	165.600
460.64	164.700
460.99	164.900
461.33	166.200
461.68	166.600
462.03	165.600
462.37	163.600
462.72	165.200
463.07	165.800
463.41	164.100
463.76	165.100
464.11	166.000
464.45	166.800
464.80	164.600
465.15	165.300
465.49	165.600
465.84	165.600
466.19	165.700
466.53	164.300
466.88	165.800
467.22	166.000
467.57	165.900
467.92	165.200
468.26	165.600
468.61	164.700
468.95	166.400
469.30	165.100
469.65	166.900
469.99	166.300
470.34	168.000
470.68	166.600
471.03	167.700
471.37	166.500
471.72	167.500
472.07	165.300
472.41	166.000
472.76	166.200
473.10	165.400
473.45	167.100
473.79	165.400
474.14	165.800
474.48	165.800
474.83	165.700
475.17	165.600
475.52	166.500
475.86	165.200
476.21	163.700
476.55	164.200
476.90	164.800
477.24	165.400
477.59	167.200
477.93	165.600
478.28	165.100
478.62	165.200
478.97	165.100
479.31	163.600
479.66	164.900
480.00	166.300
480.35	166.000
480.69	165.900
481.04	166.200
481.38	165.400
481.72	164.800
482.07	165.800
482.41	165.800
482.76	166.000
483.10	165.500
483.45	167.300
483.79	165.400
484.13	167.300
484.48	166.100
484.82	165.800
485.17	166.100
485.51	165.600
485.86	166.700
486.20	166.000
486.54	164.200
486.89	165.100
487.23	166.800
487.57	164.700
487.92	165.500
488.26	165.000
488.61	167.300
488.95	165.700
489.29	166.500
489.64	164.800
489.98	164.700
490.32	166.100
490.67	164.200
491.01	165.300
491.35	166.200
491.70	164.200
492.04	165.400
492.38	166.700
492.73	165.700
493.07	165.100
493.41	165.100
493.76	165.200
494.10	164.800
494.44	167.300
494.79	165.900
495.13	164.800
495.47	165.000
495.81	166.500
496.16	166.200
496.50	165.900
496.84	165.900
497.18	165.600
497.53	165.500
497.87	165.800
498.21	166.100
498.56	165.200
498.90	166.300
499.24	166.300
499.58	166.600
499.93	165.400
500.27	165.200
500.61	164.700
500.95	165.200
501.29	165.100
501.64	167.000
501.98	167.600
502.32	166.400
502.66	167.600
503.00	169.100
503.35	169.000
503.69	168.500
504.03	167.800
504.37	167.200
504.71	167.500
505.06	167.100
505.40	166.600
505.74	166.100
506.08	166.700
506.42	167.900
506.76	168.000
507.11	167.700
507.45	166.100
507.79	166.500
508.13	165.900
508.47	166.700
508.81	167.000
509.15	167.200
509.50	165.700
509.84	166.300
510.18	166.400
510.52	168.500
510.86	169.500
511.20	168.000
511.54	169.100
511.88	170.600
512.22	167.400
512.57	167.400
512.91	167.000
513.25	167.500
513.59	166.200
513.93	168.200
514.27	167.900
514.61	166.700
514.95	167.500
515.29	167.800
515.63	166.100
515.97	166.600
516.31	167.700
516.65	165.600
516.99	164.900
517.33	165.700
517.67	166.600
518.01	165.100
518.35	167.600
518.69	167.400
519.03	166.300
519.38	166.800
519.72	166.200
520.06	168.800
520.40	166.500
520.74	167.200
521.07	166.100
521.41	168.500
521.75	167.300
522.09	166.400
522.43	167.400
522.77	166.400
523.11	165.600
523.45	167.300
523.79	167.800
524.13	165.200
524.47	164.500
524.81	165.400
525.15	166.200
525.49	164.500
525.83	166.300
526.17	165.700
526.51	165.200
526.85	165.200
527.19	166.600
527.53	165.900
527.86	165.000
528.20	165.500
528.54	164.500
528.88	165.800
529.22	165.500
529.56	166.100
529.90	166.100
530.24	166.400
530.58	167.300
530.91	166.400
531.25	167.900
531.59	169.100
531.93	171.200
532.27	174.700
532.61	177.600
532.95	180.500
533.29	180.500
533.62	178.800
533.96	178.400
534.30	177.200
534.64	176.500
534.98	172.200
535.32	171.300
535.65	169.900
535.99	170.600
536.33	169.200
536.67	169.600
537.01	168.100
537.34	168.700
537.68	167.700
538.02	168.700
538.36	175.200
538.70	183.900
539.03	194.300
539.37	199.000
539.71	200.300
540.05	196.000
540.38	187.500
540.72	183.800
541.06	179.900
541.40	179.500
541.73	176.600
542.07	174.600
542.41	172.500
542.75	171.600
543.08	172.900
543.42	168.400
543.76	168.900
544.09	167.300
544.43	168.600
544.77	167.100
545.11	166.500
545.44	167.200
545.78	166.800
546.12	166.000
546.45	166.300
546.79	164.300
547.13	166.300
547.46	164.400
547.80	165.900
548.14	165.000
548.47	166.800
548.81	165.300
549.15	167.200
549.48	165.400
549.82	165.700
550.16	164.700
550.49	166.300
550.83	166.000
551.17	166.900
551.50	166.600
551.84	168.100
552.17	166.700
552.51	165.700
552.85	166.900
553.18	164.800
553.52	164.800
553.86	166.000
554.19	166.800
554.53	166.400
554.86	167.400
555.20	166.600
555.53	167.700
555.87	167.800
556.21	167.700
556.54	168.100
556.88	168.400
557.21	168.400
557.55	166.500
557.88	167.800
558.22	167.600
558.55	166.800
558.89	166.600
559.23	165.800
559.56	164.300
559.90	167.500
560.23	166.900
560.57	167.900
560.90	166.800
561.24	166.500
561.57	165.700
561.91	167.300
562.24	166.800
562.58	167.000
562.91	167.000
563.25	167.300
563.58	168.100
563.92	167.700
564.25	167.500
564.59	168.200
564.92	170.500
565.25	170.400
565.59	170.300
565.92	169.200
566.26	168.200
566.59	168.600
566.93	167.400
567.26	168.500
567.60	168.500
567.93	170.000
568.26	168.300
568.60	169.700
568.93	169.100
569.27	168.400
569.60	168.500
569.93	167.000
570.27	169.500
570.60	167.900
570.94	169.400
571.27	170.100
571.60	169.100
571.94	167.600
572.27	169.500
572.61	170.200
572.94	171.700
573.27	175.300
573.61	176.100
573.94	176.000
574.27	178.000
574.61	179.600
574.94	183.000
575.27	188.400
575.61	195.700
575.94	198.600
576.27	197.400
576.61	193.600
576.94	191.100
577.27	186.800
577.61	188.100
577.94	184.000
578.27	181.500
578.61	180.200
578.94	178.000
579.27	177.100
579.60	177.700
579.94	179.500
580.27	182.800
580.60	187.600
580.93	189.800
581.27	191.400
581.60	194.200
581.93	194.100
582.27	190.600
582.60	192.400
582.93	197.000
583.26	275.000
583.59	669.200
583.93	1125.000
584.26	1585.600
584.59	1935.400
584.92	1996.500
585.26	1724.900
585.59	1333.600
585.92	1072.900
586.25	970.400
586.58	1026.000
586.92	1141.700
587.25	1251.000
587.58	1310.700
587.91	1233.700
588.24	1025.000
588.57	806.800
588.91	656.200
589.24	568.900
589.57	494.000
589.90	433.900
590.23	387.100
590.56	342.100
590.90	303.900
591.23	273.600
591.56	252.700
591.89	232.700
592.22	222.500
592.55	285.000
592.88	556.300
593.21	845.700
593.55	1142.800
593.88	1349.700
594.21	1358.300
594.54	1159.900
594.87	907.700
595.20	741.600
595.53	656.400
595.86	638.700
596.19	654.600
596.52	679.300
596.85	688.400
597.19	654.400
597.52	577.900
597.85	482.900
598.18	406.700
598.51	358.000
598.84	322.000
599.17	293.800
599.50	267.600
599.83	250.800
600.16	232.400
600.49	220.600
600.82	213.400
601.15	240.000
601.48	315.200
601.81	395.600
602.14	472.500
602.47	523.600
602.80	511.300
603.13	453.100
603.46	385.100
603.79	342.700
604.12	309.200
604.45	286.500
604.78	273.000
605.11	260.900
605.44	278.000
605.77	445.900
606.10	654.600
606.43	857.100
606.76	1043.800
607.08	1092.300
607.41	970.200
607.74	890.000
608.07	1074.600
608.40	1319.200
608.73	1570.800
609.06	1743.600
609.39	1656.000
609.72	1406.100
610.05	1084.100
610.38	884.500
610.71	744.200
611.03	644.500
611.36	583.600
611.69	525.600
612.02	481.500
612.35	519.200
612.68	943.600
613.01	1388.300
613.33	1878.000
613.66	2255.300
613.99	2323.300
614.32	2025.500
614.65	1712.100
614.98	1558.600
615.31	1530.700
615.63	1550.300
615.96	1488.600
616.29	1314.000
616.62	1081.100
616.95	857.600
617.27	713.100
617.60	600.300
617.93	509.100
618.26	442.700
618.59	385.300
618.91	330.700
619.24	287.400
619.57	263.900
619.90	304.600
620.23	437.400
620.55	568.900
620.88	701.500
621.21	784.400
621.54	760.400
621.86	655.700
622.19	535.800
622.52	448.700
622.85	402.300
623.17	364.800
623.50	336.000
623.83	307.900
624.15	284.100
624.48	270.700
624.81	373.400
625.14	687.200
625.46	996.100
625.79	1317.900
626.12	1519.900
626.44	1491.400
626.77	1264.000
627.10	978.400
627.42	783.200
627.75	662.900
628.08	579.900
628.40	520.200
628.73	547.600
629.06	636.500
629.38	726.300
629.71	811.500
630.04	848.100
630.36	782.700
630.69	663.200
631.02	534.000
631.34	472.800
631.67	652.100
631.99	1058.000
632.32	1451.400
632.65	1845.500
632.97	2063.300
633.30	1944.300
633.62	1605.400
633.95	1230.100
634.28	978.900
634.60	812.800
634.93	701.800
635.25	610.700
635.58	535.600
635.91	468.800
636.23	429.100
636.56	657.600
636.88	1081.800
637.21	1486.400
637.53	1886.200
637.86	2092.400
638.18	2010.200
638.51	2301.400
638.83	2841.100
639.16	3439.600
639.48	3760.600
639.81	3866.500
640.13	3733.800
640.46	3428.500
640.78	2825.600
641.11	1978.900
641.43	1604.900
641.76	1332.900
642.08	1126.200
642.41	940.900
642.73	781.600
643.06	632.700
643.38	519.900
643.71	427.100
644.03	360.200
644.36	309.400
644.68	263.800
645.01	226.900
645.33	205.100
645.66	191.400
645.98	185.400
646.30	182.700
646.63	181.700
646.95	183.000
647.28	184.100
647.60	184.900
647.92	184.300
648.25	184.300
648.57	204.100
648.90	433.900
649.22	888.900
649.54	1318.700
649.87	1737.000
650.19	1998.500
650.52	1918.500
650.84	1601.800
651.16	1219.300
651.49	1044.100
651.81	1041.700
652.13	1089.400
652.46	1153.800
652.78	1183.500
653.10	1113.600
653.43	939.400
653.75	750.200
654.07	598.500
654.40	498.900
654.72	427.300
655.04	372.200
655.37	329.000
655.69	290.100
656.01	260.300
656.34	237.800
656.66	222.200
656.98	211.700
657.30	202.500
657.63	198.300
657.95	220.700
658.27	384.000
658.60	584.900
658.92	780.700
659.24	947.800
659.56	1021.300
659.89	925.800
660.21	764.700
660.53	608.000
660.85	506.800
661.17	438.600
661.50	390.300
661.82	358.500
662.14	323.200
662.46	288.600
662.79	264.100
663.11	239.600
663.43	221.600
663.75	211.300
664.07	202.100
664.40	194.400
664.72	190.800
665.04	190.100
665.36	190.800
665.68	192.900
666.00	290.600
666.33	600.600
666.65	911.500
666.97	1228.200
667.29	1477.400
667.61	1486.200
667.93	1300.500
668.25	1020.600
668.58	806.700
668.90	659.000
669.22	563.500
669.54	492.200
669.86	496.800
670.18	661.200
670.50	817.700
670.82	991.100
671.15	1132.900
671.47	1140.500
671.79	997.300
672.11	794.900
672.43	629.500
672.75	518.000
673.07	443.700
673.39	387.300
673.71	349.600
674.03	311.200
674.35	278.500
674.67	252.300
674.99	232.600
675.31	214.300
675.63	203.500
675.95	190.000
676.27	180.700
676.59	177.500
676.92	170.700
677.24	168.500
677.56	169.500
677.88	168.300
678.20	168.100
678.52	168.000
678.84	166.700
679.16	166.400
679.47	168.500
679.79	166.800
680.11	165.900
680.43	168.300
680.75	167.500
681.07	167.000
681.39	167.400
681.71	165.800
682.03	166.000
682.35	166.500
682.67	166.100
682.99	166.800
683.31	167.900
683.63	169.700
683.95	168.900
684.27	170.800
684.59	169.200
684.91	168.500
685.22	167.500
685.54	167.500
685.86	168.900
686.18	169.800
686.50	167.700
686.82	168.700
687.14	170.300
687.46	168.800
687.78	168.800
688.09	169.100
688.41	170.600
688.73	169.100
689.05	167.700
689.37	170.900
689.69	171.500
690.01	171.300
690.32	172.500
690.64	176.200
690.96	190.200
691.28	345.900
691.60	628.600
691.91	888.500
692.23	1142.300
692.55	1297.600
692.87	1258.900
693.19	1070.200
693.50	830.800
693.82	671.400
694.14	560.000
694.46	474.500
694.78	416.600
695.09	366.400
695.41	320.800
695.73	285.200
696.05	258.200
696.36	233.600
696.68	218.400
697.00	203.500
697.32	193.800
697.63	184.500
697.95	178.000
698.27	175.700
698.59	171.300
698.90	171.700
699.22	170.700
699.54	172.400
699.85	172.700
700.17	174.500
700.49	181.200
700.80	204.900
701.12	234.800
701.44	372.700
701.75	867.000
702.07	1377.100
702.39	1841.700
702.70	2243.200
703.02	2317.200
703.34	2059.500
703.65	1650.300
703.97	1273.600
704.29	1015.900
704.60	834.800
704.92	687.600
705.24	588.900
705.55	505.500
705.87	429.800
706.18	365.100
706.50	314.000
706.82	278.800
707.13	240.700
707.45	213.200
707.76	193.700
708.08	181.100
708.40	174.300
708.71	171.600
709.03	169.400
709.34	168.700
709.66	169.400
709.98	167.800
710.29	168.200
710.61	168.100
710.92	168.100
711.24	165.800
711.55	170.000
711.87	166.800
712.18	167.200
712.50	167.400
712.81	166.700
713.13	165.900
713.44	165.600
713.76	166.200
714.07	166.600
714.39	168.100
714.70	166.800
715.02	168.600
715.33	168.300
715.65	182.200
715.96	231.300
716.28	273.100
716.59	316.000
716.91	350.400
717.22	359.900
717.54	336.900
717.85	298.500
718.17	265.600
718.48	245.700
718.79	228.300
719.11	213.400
719.42	205.000
719.74	197.800
720.05	189.800
720.37	183.100
720.68	179.500
720.99	175.600
721.31	171.900
721.62	171.200
721.94	171.600
722.25	172.700
722.56	178.500
722.88	252.900
723.19	421.200
723.50	565.000
723.82	707.500
724.13	816.800
724.45	819.800
724.76	707.800
725.07	588.500
725.39	475.100
725.70	407.600
726.01	354.900
726.33	314.700
726.64	280.000
726.95	253.300
727.27	229.000
727.58	208.800
727.89	190.400
728.20	180.300
728.52	171.800
728.83	169.600
729.14	167.200
729.46	167.900
729.77	165.700
730.08	166.600
730.39	165.800
730.71	165.500
731.02	164.600
731.33	164.900
731.64	165.100
731.96	165.100
732.27	165.600
732.58	166.300
732.89	165.100
733.21	165.200
733.52	165.000
733.83	164.900
734.14	166.100
734.46	165.200
734.77	164.100
735.08	165.100
735.39	164.600
735.70	164.600
736.02	166.600
736.33	165.600
736.64	166.600
736.95	165.200
737.26	165.600
737.57	166.000
737.89	165.000
738.20	166.700
738.51	167.500
738.82	166.100
739.13	165.600
739.44	166.500
739.75	165.200
740.07	166.400
740.38	165.100
740.69	165.300
741.00	165.800
741.31	166.000
741.62	165.700
741.93	167.200
742.24	179.200
742.56	224.000
742.87	262.100
743.18	299.400
743.49	327.300
743.80	334.500
744.11	312.800
744.42	281.000
744.73	251.100
745.04	232.100
745.35	218.300
745.66	206.100
745.97	192.400
746.28	184.700
746.59	177.800
746.90	175.100
747.21	173.100
747.52	179.500
747.83	187.800
748.14	196.000
748.45	200.100
748.76	204.900
749.07	200.500
749.38	193.200
749.69	184.600
750.00	180.800
750.31	179.100
750.62	176.000
750.93	172.500
751.24	169.200
751.55	167.900
751.86	168.000
752.17	172.700
752.48	179.600
752.79	188.800
753.10	199.100
753.41	204.200
753.72	205.800
754.03	203.600
754.34	197.600
754.65	189.800
754.96	183.700
755.27	181.600
755.57	176.700
755.88	173.200
756.19	169.600
756.50	167.200
756.81	167.300
757.12	165.300
757.43	165.300
757.74	166.100
758.05	163.500
758.35	164.100
758.66	165.000
758.97	165.600
759.28	164.300
759.59	164.600
759.90	163.300
760.20	165.300
760.51	165.400
760.82	163.400
761.13	164.800
761.44	164.200
761.75	164.500
762.05	165.400
762.36	164.700
762.67	164.900
762.98	165.900
763.29	163.900
763.59	163.900
763.90	165.000
764.21	164.500
764.52	165.000
764.82	166.700
765.13	165.000
765.44	163.900
765.75	165.500
766.06	164.400
766.36	165.400
766.67	165.100
766.98	162.900
767.28	164.100
767.59	165.000
767.90	166.100
768.21	164.500
768.51	163.800
768.82	165.400
769.13	165.000
769.43	164.400
769.74	165.500
770.05	165.400
770.36	164.400
770.66	164.100
770.97	165.900
771.28	166.800
771.58	164.700
771.89	166.200
772.20	164.400
772.50	164.000
772.81	164.400
773.12	164.900
773.42	165.400
773.73	164.200
774.03	165.600
774.34	164.100
774.65	164.900
774.95	163.700
775.26	165.200
775.57	165.000
775.87	164.800
776.18	164.500
776.48	164.200
776.79	165.700
777.09	164.400
777.40	164.600
777.71	164.100
778.01	165.700
778.32	164.300
778.62	165.400
778.93	164.600
779.23	165.200
779.54	164.100
779.85	165.600
780.15	164.100
780.46	163.400
780.76	163.200
781.07	164.600
781.37	165.500
781.68	165.500
781.98	163.800
782.29	165.100
782.59	162.800
782.90	164.500
783.20	163.800
783.51	163.900
783.81	164.900
784.12	163.400
784.42	164.100
784.73	165.300
785.03	164.000
785.34	163.700
785.64	163.700
785.94	164.300
786.25	165.600
786.55	166.800
786.86	163.900
787.16	163.900
787.47	165.000
787.77	164.100
788.07	164.300
788.38	165.000
788.68	163.700
788.99	165.200
789.29	165.500
789.60	163.400
789.90	164.200
790.20	165.600
790.51	165.000
790.81	164.900
791.11	164.000
791.42	164.800
791.72	163.400
792.03	164.200
792.33	165.000
792.63	164.900
792.94	165.700
793.24	166.200
793.54	167.600
793.85	168.400
794.15	167.000
794.45	168.700
794.76	168.700
795.06	167.100
795.36	167.400
795.66	165.100
795.97	166.200
796.27	167.000
796.57	166.600
796.88	163.700
797.18	164.100
797.48	163.500
797.78	164.300
798.09	165.000
798.39	164.300
798.69	164.200
798.99	164.600
799.30	165.700
799.60	164.500
799.90	163.000
800.20	164.400
800.51	163.900
800.81	164.100
801.11	163.900
801.41	163.900
801.72	164.400
802.02	164.400
802.32	166.500
802.62	163.400
802.92	164.300
803.23	162.400
803.53	163.400
803.83	165.700
804.13	165.200
804.43	165.400
804.73	166.300
805.04	164.500
805.34	164.400
805.64	163.500
805.94	164.400
806.24	163.500
806.54	164.100
806.84	165.500
807.15	165.800
807.45	167.800
807.75	167.500
808.05	167.700
808.35	167.800
808.65	166.800
808.95	166.800
809.25	165.300
809.55	164.400
809.85	165.300
810.16	164.200
810.46	164.600
810.76	165.700
811.06	163.200
811.36	165.200
811.66	164.600
811.96	166.400
812.26	167.600
812.56	166.700
812.86	169.400
813.16	169.200
813.46	169.700
813.76	171.500
814.06	169.300
814.36	168.000
814.66	166.700
814.96	166.400
815.26	165.600
815.56	164.200
815.86	164.700
816.16	165.400
816.46	164.600
816.76	163.600
817.06	163.500
817.36	163.900
817.66	163.500
817.96	162.400
818.26	164.100
818.56	163.200
818.86	164.800
819.16	165.400
819.46	164.100
819.76	164.200
820.05	164.700
820.35	165.000
820.65	164.700
820.95	164.700
821.25	164.300
821.55	164.700
821.85	163.800
822.15	165.300
822.45	163.900
822.75	165.000
823.04	164.800
823.34	163.700
823.64	163.600
823.94	166.000
824.24	163.900
824.54	164.900
824.84	165.700
825.13	166.900
825.43	164.300
825.73	167.000
826.03	166.600
826.33	165.300
826.63	167.900
826.92	167.500
827.22	166.600
827.52	166.200
827.82	165.500
828.12	165.400
828.41	165.900
828.71	165.400
829.01	166.900
829.31	169.100
829.61	173.600
829.90	171.400
830.20	172.300
830.50	173.100
830.80	170.500
831.09	168.200
831.39	165.400
831.69	168.000
831.99	165.300
832.28	164.500
832.58	165.400
832.88	164.800
833.17	165.300
833.47	164.900
833.77	164.800
834.07	165.500
834.36	164.000
834.66	164.700
834.96	164.500
835.25	163.500
835.55	164.500
835.85	165.200
836.14	165.100
836.44	169.600
836.74	178.200
837.03	187.400
837.33	192.900
837.63	198.400
837.92	198.800
838.22	193.500
838.52	185.600
838.81	177.700
839.11	172.900
839.40	172.400
839.70	170.300
840.00	168.300
840.29	166.900
840.59	168.300
840.88	168.500
841.18	169.400
841.48	169.800
841.77	170.900
842.07	169.900
842.36	169.400
842.66	169.000
842.95	166.500
843.25	166.400
843.55	166.900
843.84	167.100
844.14	165.600
844.43	165.900
844.73	166.200
845.02	165.100
845.32	166.300
845.61	165.400
845.91	164.800
846.20	165.900
846.50	165.100
846.79	165.700
847.09	163.500
847.38	163.900
847.68	163.600
847.97	165.200
848.27	166.100
848.56	170.200
848.86	174.000
849.15	178.300
849.45	181.900
849.74	182.100
850.03	179.600
850.33	174.000
850.62	170.900
850.92	169.800
851.21	166.500
851.51	169.000
851.80	166.700
852.09	166.400
852.39	166.100
852.68	165.600
852.98	166.200
853.27	165.600
853.56	164.700
853.86	163.600
854.15	165.300
854.45	165.400
854.74	165.900
855.03	165.200
855.33	162.800
855.62	164.800
855.91	165.500
856.21	164.600
856.50	165.600
856.79	163.400
857.09	166.900
857.38	165.900
857.67	166.100
857.97	165.500
858.26	166.300
858.55	167.600
858.85	169.900
859.14	173.200
859.43	172.300
859.72	170.000
860.02	169.800
860.31	168.000
860.60	168.000
860.90	165.400
861.19	165.600
861.48	165.800
861.77	165.100
862.07	166.300
862.36	165.900
862.65	167.100
862.94	167.600
863.23	168.200
863.53	171.400
863.82	169.800
864.11	170.100
864.40	170.900
864.70	173.100
864.99	173.900
865.28	175.700
865.57	177.900
865.86	177.700
866.16	174.900
866.45	174.900
866.74	172.300
867.03	170.200
867.32	170.700
867.61	168.600
867.90	169.300
868.20	169.700
868.49	168.600
868.78	168.000
869.07	166.500
869.36	166.700
869.65	166.100
869.94	166.200
870.24	165.600
870.53	165.900
870.82	165.500
871.11	165.600
871.40	164.000
871.69	165.800
871.98	164.600
872.27	165.200
872.56	166.000
872.85	164.100
873.14	163.500
873.43	166.100
873.72	162.900
874.02	165.400
>>>>>End Spectral Data<<<<<
