OOIBase32 Version 2.0.6.5 Data File
++++++++++++++++++++++++++++++++++++
Date: 03-07-2023, 14:26:03
User: Valued Ocean Optics Customer
Spectrometer Serial Number: USB2E099
Spectrometer Channel: Master
Integration Time (msec): 10
Spectra Averaged: 10
Boxcar Smoothing: 0
Correct for Electrical Dark: Disabled
Time Normalized: Disabled
Dual-beam Reference: Disabled
Reference Channel: Master
Temperature: Not acquired
Spectrometer Type: S2000
ADC Type: USB2000
Number of Pixels in File: 2048
Graph Title: 
>>>>>Begin Spectral Data<<<<<
188.69	0.000
189.07	158.100
189.44	159.300
189.82	161.700
190.19	162.000
190.56	162.600
190.94	164.900
191.31	165.400
191.68	165.400
192.06	166.100
192.43	166.600
192.80	166.800
193.18	168.700
193.55	168.800
193.92	167.800
194.30	167.300
194.67	166.100
195.04	166.200
195.42	166.500
195.79	166.100
196.16	166.300
196.54	165.900
196.91	167.500
197.28	166.100
197.66	166.800
198.03	168.800
198.40	168.100
198.78	167.600
199.15	167.400
199.52	166.500
199.89	168.000
200.27	170.000
200.64	168.500
201.01	167.900
201.39	168.800
201.76	169.300
202.13	167.100
202.50	168.300
202.88	169.800
203.25	169.500
203.62	170.700
203.99	168.800
204.37	168.700
204.74	169.200
205.11	168.400
205.48	169.200
205.85	169.900
206.23	168.400
206.60	167.800
206.97	168.900
207.34	169.600
207.72	169.600
208.09	169.300
208.46	169.400
208.83	168.300
209.20	169.900
209.58	169.900
209.95	169.100
210.32	170.500
210.69	169.200
211.06	169.200
211.44	171.200
211.81	170.800
212.18	170.400
212.55	169.900
212.92	171.200
213.29	171.400
213.67	170.500
214.04	169.600
214.41	170.100
214.78	170.400
215.15	170.300
215.52	171.000
215.89	170.600
216.27	169.700
216.64	170.400
217.01	170.800
217.38	171.800
217.75	171.700
218.12	172.200
218.49	169.800
218.86	171.600
219.24	173.400
219.61	171.600
219.98	171.200
220.35	171.200
220.72	171.800
221.09	170.900
221.46	172.000
221.83	172.200
222.20	171.800
222.57	171.200
222.94	171.200
223.32	172.500
223.69	172.600
224.06	172.200
224.43	171.500
224.80	172.100
225.17	170.200
225.54	170.500
225.91	172.800
226.28	173.000
226.65	173.500
227.02	172.300
227.39	172.000
227.76	170.900
228.13	173.400
228.50	172.300
228.87	173.100
229.24	172.500
229.61	171.900
229.98	172.400
230.35	171.400
230.72	172.000
231.09	172.700
231.46	173.100
231.83	173.100
232.20	172.300
232.57	171.700
232.94	172.000
233.31	171.400
233.68	172.800
234.05	172.300
234.42	172.400
234.79	172.000
235.16	172.300
235.53	173.000
235.90	173.000
236.27	172.000
236.64	173.200
237.01	173.600
237.38	172.800
237.75	173.100
238.12	173.400
238.49	170.400
238.86	172.300
239.22	172.100
239.59	173.100
239.96	173.300
240.33	173.700
240.70	172.800
241.07	173.500
241.44	172.000
241.81	173.300
242.18	173.200
242.55	172.500
242.92	172.400
243.28	174.800
243.65	173.000
244.02	172.700
244.39	172.800
244.76	173.400
245.13	173.300
245.50	171.900
245.87	172.200
246.23	173.300
246.60	174.000
246.97	173.100
247.34	173.500
247.71	173.100
248.08	173.800
248.45	172.100
248.81	173.400
249.18	174.200
249.55	173.800
249.92	173.900
250.29	174.000
250.66	174.200
251.02	172.600
251.39	174.000
251.76	173.800
252.13	173.900
252.50	173.100
252.86	172.600
253.23	172.400
253.60	174.000
253.97	173.800
254.34	172.800
254.70	173.400
255.07	173.400
255.44	174.300
255.81	173.600
256.17	173.300
256.54	173.700
256.91	172.600
257.28	173.700
257.65	174.600
258.01	175.100
258.38	175.400
258.75	173.300
259.12	172.500
259.48	175.600
259.85	174.200
260.22	175.700
260.58	176.000
260.95	174.600
261.32	174.700
261.69	173.400
262.05	173.000
262.42	173.800
262.79	173.700
263.15	174.900
263.52	175.100
263.89	174.800
264.26	173.600
264.62	174.100
264.99	174.300
265.36	173.700
265.72	173.900
266.09	174.600
266.46	175.500
266.82	172.700
267.19	176.000
267.56	174.100
267.92	173.700
268.29	175.100
268.66	174.300
269.02	175.100
269.39	173.500
269.76	174.800
270.12	173.900
270.49	175.700
270.85	175.400
271.22	175.700
271.59	174.100
271.95	174.500
272.32	173.100
272.69	174.500
273.05	175.100
273.42	175.500
273.78	173.700
274.15	176.800
274.52	175.600
274.88	175.600
275.25	176.000
275.61	175.900
275.98	177.300
276.35	175.900
276.71	176.600
277.08	173.900
277.44	175.300
277.81	175.700
278.17	174.700
278.54	176.000
278.91	175.500
279.27	177.300
279.64	176.300
280.00	174.200
280.37	175.800
280.73	175.000
281.10	176.200
281.46	177.600
281.83	175.600
282.19	175.900
282.56	176.500
282.92	175.200
283.29	176.000
283.65	175.800
284.02	175.200
284.38	176.400
284.75	175.900
285.11	176.600
285.48	175.100
285.84	174.800
286.21	177.100
286.57	175.300
286.94	177.000
287.30	175.600
287.67	177.000
288.03	175.500
288.40	175.700
288.76	176.000
289.13	176.000
289.49	176.900
289.86	175.800
290.22	177.400
290.58	176.400
290.95	176.400
291.31	175.600
291.68	176.900
292.04	174.200
292.41	174.600
292.77	176.000
293.14	176.800
293.50	175.500
293.86	176.100
294.23	178.900
294.59	176.200
294.96	179.500
295.32	178.000
295.68	176.700
296.05	176.700
296.41	176.600
296.78	175.600
297.14	176.900
297.50	178.400
297.87	178.700
298.23	177.900
298.59	177.100
298.96	176.400
299.32	178.700
299.68	178.900
300.05	179.900
300.41	177.700
300.78	178.400
301.14	178.400
301.50	178.500
301.87	176.300
302.23	179.200
302.59	177.800
302.96	177.500
303.32	177.100
303.68	178.300
304.04	177.000
304.41	178.000
304.77	178.800
305.13	177.300
305.50	177.700
305.86	178.000
306.22	179.700
306.59	178.600
306.95	178.300
307.31	179.600
307.67	180.000
308.04	179.600
308.40	180.000
308.76	180.200
309.13	178.300
309.49	179.900
309.85	179.700
310.21	177.700
310.58	179.600
310.94	179.800
311.30	179.500
311.66	179.300
312.03	181.700
312.39	180.100
312.75	179.400
313.11	180.300
313.47	180.700
313.84	180.000
314.20	180.600
314.56	181.700
314.92	184.400
315.28	181.400
315.65	182.300
316.01	182.800
316.37	181.300
316.73	183.700
317.09	181.100
317.46	182.900
317.82	181.300
318.18	183.000
318.54	182.500
318.90	180.200
319.26	182.900
319.63	184.000
319.99	181.800
320.35	182.600
320.71	184.600
321.07	184.500
321.43	186.000
321.80	185.700
322.16	185.100
322.52	184.400
322.88	184.000
323.24	185.600
323.60	188.600
323.96	187.000
324.32	187.200
324.69	184.900
325.05	188.700
325.41	186.300
325.77	187.400
326.13	187.800
326.49	187.700
326.85	188.400
327.21	188.700
327.57	187.500
327.93	190.400
328.29	191.300
328.66	189.600
329.02	191.200
329.38	190.800
329.74	191.900
330.10	191.900
330.46	192.400
330.82	191.900
331.18	191.700
331.54	193.100
331.90	192.900
332.26	195.200
332.62	194.400
332.98	196.600
333.34	193.200
333.70	196.100
334.06	197.200
334.42	195.900
334.78	196.000
335.14	198.600
335.50	197.300
335.86	198.900
336.22	200.600
336.58	200.600
336.94	201.200
337.30	202.100
337.66	200.500
338.02	202.500
338.38	202.400
338.74	205.800
339.10	204.200
339.46	204.200
339.82	204.400
340.18	206.500
340.54	207.200
340.90	208.600
341.26	207.900
341.62	207.200
341.98	209.900
342.34	209.900
342.70	211.300
343.05	213.700
343.41	211.200
343.77	214.200
344.13	213.900
344.49	215.100
344.85	213.800
345.21	217.700
345.57	215.600
345.93	215.500
346.29	218.400
346.65	219.400
347.00	221.200
347.36	222.500
347.72	222.000
348.08	224.000
348.44	225.600
348.80	224.900
349.16	226.500
349.52	227.800
349.87	227.700
350.23	228.000
350.59	230.100
350.95	229.000
351.31	230.100
351.67	231.000
352.03	233.300
352.38	234.000
352.74	234.500
353.10	235.700
353.46	234.100
353.82	235.900
354.17	239.200
354.53	239.100
354.89	239.000
355.25	237.100
355.61	240.500
355.97	242.900
356.32	242.500
356.68	241.500
357.04	244.000
357.40	246.300
357.75	244.600
358.11	246.000
358.47	245.300
358.83	246.000
359.19	246.000
359.54	248.100
359.90	251.100
360.26	251.500
360.62	252.500
360.97	253.900
361.33	253.900
361.69	253.100
362.05	255.400
362.40	256.000
362.76	257.100
363.12	260.900
363.47	261.000
363.83	261.500
364.19	265.300
364.55	262.200
364.90	267.900
365.26	267.600
365.62	271.600
365.97	271.000
366.33	273.100
366.69	272.600
367.04	277.100
367.40	278.100
367.76	279.900
368.11	278.700
368.47	283.700
368.83	285.200
369.18	288.200
369.54	286.100
369.90	287.700
370.25	290.500
370.61	287.400
370.97	295.000
371.32	294.800
371.68	296.600
372.04	298.400
372.39	297.900
372.75	297.800
373.11	304.300
373.46	304.100
373.82	304.600
374.17	306.900
374.53	310.100
374.89	312.000
375.24	317.700
375.60	317.800
375.95	323.000
376.31	319.900
376.67	321.400
377.02	319.800
377.38	323.800
377.73	322.700
378.09	320.600
378.44	321.200
378.80	323.700
379.16	323.200
379.51	334.100
379.87	337.900
380.22	338.000
380.58	343.000
380.93	339.800
381.29	347.100
381.64	356.600
382.00	356.600
382.35	354.200
382.71	376.100
383.06	372.700
383.42	377.000
383.77	384.600
384.13	382.400
384.49	390.200
384.84	402.400
385.20	403.400
385.55	412.400
385.90	404.600
386.26	409.200
386.61	417.200
386.97	417.400
387.32	429.900
387.68	431.000
388.03	431.900
388.39	434.000
388.74	455.000
389.10	453.200
389.45	446.900
389.81	447.800
390.16	450.500
390.52	459.000
390.87	467.400
391.22	479.100
391.58	472.400
391.93	472.600
392.29	485.600
392.64	487.800
393.00	486.000
393.35	491.700
393.70	499.000
394.06	504.500
394.41	510.400
394.77	511.100
395.12	507.900
395.47	522.600
395.83	524.800
396.18	524.400
396.53	529.300
396.89	536.300
397.24	532.400
397.60	540.400
397.95	547.700
398.30	530.700
398.66	547.500
399.01	547.300
399.36	550.700
399.72	554.800
400.07	560.000
400.42	555.300
400.78	556.600
401.13	570.800
401.48	571.800
401.84	572.800
402.19	595.800
402.54	584.200
402.90	577.800
403.25	580.600
403.60	590.300
403.96	599.500
404.31	619.400
404.66	614.600
405.01	617.400
405.37	604.300
405.72	616.600
406.07	629.100
406.43	621.500
406.78	635.400
407.13	647.200
407.48	643.900
407.84	659.800
408.19	675.800
408.54	675.100
408.89	681.700
409.25	688.300
409.60	687.900
409.95	670.700
410.30	684.700
410.66	712.300
411.01	736.800
411.36	734.700
411.71	741.600
412.06	749.500
412.42	752.800
412.77	775.000
413.12	750.900
413.47	769.600
413.82	751.400
414.18	797.600
414.53	779.400
414.88	795.900
415.23	795.900
415.58	791.800
415.93	804.900
416.29	785.100
416.64	833.100
416.99	837.400
417.34	840.100
417.69	831.400
418.04	848.300
418.40	852.400
418.75	877.700
419.10	869.000
419.45	859.900
419.80	858.400
420.15	877.100
420.50	865.800
420.86	866.300
421.21	867.200
421.56	880.900
421.91	862.400
422.26	886.800
422.61	879.300
422.96	896.700
423.31	919.800
423.66	924.300
424.01	899.900
424.36	878.500
424.72	893.500
425.07	946.800
425.42	909.600
425.77	939.000
426.12	927.500
426.47	886.000
426.82	944.500
427.17	951.500
427.52	933.000
427.87	964.200
428.22	973.100
428.57	995.600
428.92	977.200
429.27	967.800
429.62	1000.000
429.97	995.800
430.32	1019.200
430.67	1009.700
431.02	1040.600
431.37	1049.400
431.72	1041.600
432.07	1027.200
432.42	1054.800
432.77	1037.700
433.12	1071.100
433.47	1091.000
433.82	1104.300
434.17	1083.200
434.52	1124.700
434.87	1154.300
435.22	1164.200
435.57	1146.200
435.92	1120.000
436.27	1176.700
436.62	1185.500
436.97	1214.200
437.32	1192.300
437.67	1142.400
438.02	1218.300
438.37	1274.600
438.72	1183.800
439.06	1163.600
439.41	1221.200
439.76	1271.500
440.11	1246.200
440.46	1287.600
440.81	1234.800
441.16	1227.500
441.51	1236.800
441.86	1266.500
442.21	1245.000
442.55	1264.900
442.90	1269.500
443.25	1221.400
443.60	1307.800
443.95	1301.100
444.30	1313.400
444.65	1277.900
445.00	1227.600
445.34	1285.200
445.69	1295.100
446.04	1283.100
446.39	1311.200
446.74	1315.900
447.09	1347.300
447.43	1333.300
447.78	1291.200
448.13	1317.200
448.48	1329.600
448.83	1324.400
449.18	1343.500
449.52	1340.500
449.87	1335.500
450.22	1335.200
450.57	1332.500
450.92	1354.500
451.26	1328.500
451.61	1407.200
451.96	1364.500
452.31	1395.400
452.65	1396.600
453.00	1361.600
453.35	1356.100
453.70	1383.100
454.04	1360.400
454.39	1342.500
454.74	1376.100
455.09	1382.800
455.43	1435.200
455.78	1402.200
456.13	1459.800
456.48	1408.900
456.82	1530.300
457.17	1492.400
457.52	1475.300
457.87	1515.300
458.21	1517.700
458.56	1507.400
458.91	1535.100
459.25	1578.300
459.60	1555.300
459.95	1522.800
460.29	1528.200
460.64	1637.500
460.99	1600.600
461.33	1470.500
461.68	1592.800
462.03	1627.200
462.37	1637.400
462.72	1625.500
463.07	1671.400
463.41	1664.100
463.76	1670.000
464.11	1650.100
464.45	1703.100
464.80	1677.000
465.15	1690.600
465.49	1729.200
465.84	1716.600
466.19	1664.600
466.53	1732.700
466.88	1723.100
467.22	1696.400
467.57	1625.100
467.92	1708.700
468.26	1724.700
468.61	1763.500
468.95	1762.500
469.30	1730.700
469.65	1744.400
469.99	1759.300
470.34	1816.500
470.68	1750.200
471.03	1804.200
471.37	1768.600
471.72	1764.600
472.07	1791.300
472.41	1777.000
472.76	1826.700
473.10	1815.100
473.45	1835.800
473.79	1849.900
474.14	1793.500
474.48	1807.300
474.83	1828.700
475.17	1841.700
475.52	1832.800
475.86	1842.900
476.21	1794.900
476.55	1811.500
476.90	1817.200
477.24	1848.300
477.59	1826.300
477.93	1846.800
478.28	1856.400
478.62	1876.900
478.97	1886.800
479.31	1885.900
479.66	1894.000
480.00	1914.200
480.35	1898.400
480.69	1898.100
481.04	1920.600
481.38	1941.100
481.72	1932.300
482.07	1928.200
482.41	1963.500
482.76	1997.700
483.10	2017.100
483.45	2006.500
483.79	2023.200
484.13	2032.100
484.48	2051.700
484.82	2062.300
485.17	2086.600
485.51	2130.400
485.86	2119.000
486.20	2159.300
486.54	2161.500
486.89	2180.000
487.23	2186.500
487.57	2238.200
487.92	2253.200
488.26	2267.000
488.61	2296.800
488.95	2311.700
489.29	2281.000
489.64	2302.000
489.98	2334.900
490.32	2341.300
490.67	2361.700
491.01	2379.600
491.35	2413.700
491.70	2407.700
492.04	2387.300
492.38	2400.600
492.73	2437.500
493.07	2482.400
493.41	2489.200
493.76	2515.800
494.10	2500.300
494.44	2478.300
494.79	2504.400
495.13	2529.500
495.47	2542.800
495.81	2559.300
496.16	2580.400
496.50	2567.600
496.84	2562.800
497.18	2545.500
497.53	2579.900
497.87	2575.600
498.21	2600.400
498.56	2598.300
498.90	2595.900
499.24	2610.000
499.58	2627.200
499.93	2608.000
500.27	2583.800
500.61	2571.200
500.95	2580.500
501.29	2608.900
501.64	2626.500
501.98	2623.500
502.32	2599.200
502.66	2592.400
503.00	2613.900
503.35	2605.000
503.69	2589.800
504.03	2602.900
504.37	2599.200
504.71	2602.600
505.06	2598.200
505.40	2572.800
505.74	2597.300
506.08	2602.600
506.42	2577.200
506.76	2559.600
507.11	2569.800
507.45	2553.600
507.79	2543.300
508.13	2554.700
508.47	2554.400
508.81	2570.200
509.15	2579.800
509.50	2542.000
509.84	2528.600
510.18	2527.900
510.52	2536.300
510.86	2548.500
511.20	2536.200
511.54	2522.700
511.88	2532.000
512.22	2552.600
512.57	2534.900
512.91	2551.400
513.25	2538.800
513.59	2541.200
513.93	2533.100
514.27	2527.200
514.61	2531.400
514.95	2520.600
515.29	2516.800
515.63	2524.100
515.97	2552.400
516.31	2536.100
516.65	2546.600
516.99	2551.700
517.33	2578.800
517.67	2566.800
518.01	2576.200
518.35	2583.200
518.69	2606.600
519.03	2592.900
519.38	2585.400
519.72	2610.100
520.06	2604.500
520.40	2620.800
520.74	2623.100
521.07	2650.700
521.41	2653.600
521.75	2658.200
522.09	2669.500
522.43	2689.500
522.77	2705.900
523.11	2722.500
523.45	2714.000
523.79	2738.200
524.13	2759.300
524.47	2777.400
524.81	2796.100
525.15	2797.700
525.49	2825.300
525.83	2815.500
526.17	2834.500
526.51	2842.200
526.85	2880.400
527.19	2898.700
527.53	2930.900
527.86	2928.300
528.20	2930.000
528.54	2920.200
528.88	2944.900
529.22	2933.300
529.56	2955.500
529.90	2998.100
530.24	3008.900
530.58	3018.300
530.91	3025.700
531.25	3045.600
531.59	3045.800
531.93	3047.900
532.27	3058.800
532.61	3062.900
532.95	3082.200
533.29	3089.800
533.62	3094.300
533.96	3105.500
534.30	3120.500
534.64	3091.900
534.98	3103.900
535.32	3086.000
535.65	3114.700
535.99	3109.100
536.33	3089.900
536.67	3101.600
537.01	3105.700
537.34	3117.600
537.68	3106.200
538.02	3133.300
538.36	3100.200
538.70	3112.300
539.03	3092.900
539.37	3109.400
539.71	3087.600
540.05	3102.100
540.38	3069.400
540.72	3085.000
541.06	3081.200
541.40	3067.100
541.73	3059.100
542.07	3030.800
542.41	3035.800
542.75	3026.000
543.08	2999.500
543.42	3022.100
543.76	2995.700
544.09	2988.800
544.43	2996.000
544.77	2949.300
545.11	2950.800
545.44	2909.100
545.78	2912.000
546.12	2910.100
546.45	2889.200
546.79	2901.700
547.13	2894.000
547.46	2887.200
547.80	2880.500
548.14	2863.500
548.47	2864.400
548.81	2835.500
549.15	2863.200
549.48	2860.000
549.82	2843.800
550.16	2839.300
550.49	2813.000
550.83	2813.100
551.17	2788.200
551.50	2798.200
551.84	2778.800
552.17	2744.100
552.51	2740.600
552.85	2767.600
553.18	2753.100
553.52	2772.700
553.86	2759.500
554.19	2761.700
554.53	2757.100
554.86	2757.100
555.20	2756.900
555.53	2734.500
555.87	2718.000
556.21	2739.800
556.54	2726.300
556.88	2758.700
557.21	2754.800
557.55	2761.500
557.88	2798.000
558.22	2741.900
558.55	2709.800
558.89	2725.700
559.23	2732.000
559.56	2712.000
559.90	2731.300
560.23	2756.900
560.57	2768.900
560.90	2745.600
561.24	2786.100
561.57	2717.900
561.91	2752.400
562.24	2803.500
562.58	2786.900
562.91	2802.800
563.25	2785.500
563.58	2825.800
563.92	2817.500
564.25	2845.500
564.59	2825.900
564.92	2846.300
565.25	2838.700
565.59	2846.400
565.92	2882.100
566.26	2889.400
566.59	2929.500
566.93	2938.600
567.26	2952.700
567.60	2939.300
567.93	2948.600
568.26	2927.900
568.60	2947.100
568.93	2939.800
569.27	2996.800
569.60	3012.100
569.93	3030.600
570.27	3040.300
570.60	3037.700
570.94	3047.700
571.27	3078.700
571.60	3062.800
571.94	3080.000
572.27	3093.700
572.61	3115.300
572.94	3118.800
573.27	3128.300
573.61	3166.100
573.94	3185.200
574.27	3168.200
574.61	3194.200
574.94	3196.000
575.27	3203.100
575.61	3201.400
575.94	3203.900
576.27	3235.300
576.61	3238.900
576.94	3243.400
577.27	3233.300
577.61	3245.100
577.94	3275.300
578.27	3297.400
578.61	3311.500
578.94	3311.100
579.27	3289.800
579.60	3280.900
579.94	3306.600
580.27	3311.700
580.60	3313.700
580.93	3299.300
581.27	3314.100
581.60	3342.200
581.93	3369.600
582.27	3351.400
582.60	3348.700
582.93	3355.200
583.26	3352.600
583.59	3353.900
583.93	3317.600
584.26	3309.300
584.59	3313.100
584.92	3321.800
585.26	3311.600
585.59	3313.600
585.92	3300.300
586.25	3268.800
586.58	3277.400
586.92	3298.200
587.25	3285.000
587.58	3276.200
587.91	3257.900
588.24	3246.400
588.57	3243.400
588.91	3200.700
589.24	3202.800
589.57	3192.600
589.90	3163.300
590.23	3157.100
590.56	3154.600
590.90	3175.000
591.23	3157.100
591.56	3150.700
591.89	3139.900
592.22	3145.300
592.55	3140.400
592.88	3099.400
593.21	3079.600
593.55	3059.300
593.88	3061.200
594.21	3046.400
594.54	3031.400
594.87	3031.800
595.20	3034.100
595.53	3056.600
595.86	3036.000
596.19	3025.400
596.52	2971.700
596.85	2960.300
597.19	2959.500
597.52	2949.100
597.85	2946.700
598.18	2948.300
598.51	2935.500
598.84	2918.600
599.17	2890.100
599.50	2899.800
599.83	2907.800
600.16	2899.000
600.49	2886.500
600.82	2851.800
601.15	2857.600
601.48	2876.400
601.81	2880.400
602.14	2847.100
602.47	2845.600
602.80	2840.700
603.13	2848.900
603.46	2863.700
603.79	2850.800
604.12	2839.600
604.45	2807.300
604.78	2824.800
605.11	2819.300
605.44	2811.600
605.77	2822.800
606.10	2789.700
606.43	2748.400
606.76	2778.500
607.08	2775.900
607.41	2758.600
607.74	2756.600
608.07	2784.800
608.40	2798.500
608.73	2794.000
609.06	2799.600
609.39	2764.900
609.72	2796.400
610.05	2800.400
610.38	2797.000
610.71	2790.600
611.03	2788.000
611.36	2793.700
611.69	2796.800
612.02	2797.300
612.35	2796.600
612.68	2832.600
613.01	2807.900
613.33	2836.900
613.66	2829.400
613.99	2832.600
614.32	2827.100
614.65	2830.900
614.98	2856.000
615.31	2868.400
615.63	2878.600
615.96	2893.000
616.29	2911.600
616.62	2930.500
616.95	2927.500
617.27	2910.200
617.60	2923.900
617.93	2928.200
618.26	2951.200
618.59	2943.600
618.91	2941.600
619.24	2965.100
619.57	2970.500
619.90	2983.700
620.23	2971.500
620.55	2974.900
620.88	2988.700
621.21	3025.400
621.54	3026.000
621.86	3049.000
622.19	3064.200
622.52	3036.200
622.85	3069.300
623.17	3061.600
623.50	3065.900
623.83	3046.400
624.15	3051.800
624.48	3069.600
624.81	3053.500
625.14	3082.200
625.46	3084.200
625.79	3089.900
626.12	3083.400
626.44	3090.300
626.77	3096.300
627.10	3076.800
627.42	3104.400
627.75	3081.000
628.08	3112.500
628.40	3104.300
628.73	3123.500
629.06	3106.900
629.38	3122.500
629.71	3119.100
630.04	3152.500
630.36	3148.200
630.69	3168.500
631.02	3146.800
631.34	3118.400
631.67	3126.900
631.99	3139.600
632.32	3127.400
632.65	3164.400
632.97	3158.500
633.30	3148.300
633.62	3132.400
633.95	3128.100
634.28	3090.600
634.60	3082.000
634.93	3098.600
635.25	3098.000
635.58	3111.000
635.91	3102.500
636.23	3106.500
636.56	3097.000
636.88	3116.200
637.21	3115.500
637.53	3136.100
637.86	3099.800
638.18	3050.700
638.51	3056.800
638.83	3066.100
639.16	3082.200
639.48	3070.200
639.81	3042.800
640.13	3045.200
640.46	3035.100
640.78	3020.700
641.11	3006.700
641.43	2971.000
641.76	2975.900
642.08	2990.400
642.41	2994.000
642.73	2977.700
643.06	2929.800
643.38	2914.800
643.71	2901.000
644.03	2908.300
644.36	2899.600
644.68	2899.800
645.01	2875.700
645.33	2888.800
645.66	2882.500
645.98	2851.000
646.30	2853.900
646.63	2842.300
646.95	2825.200
647.28	2811.000
647.60	2829.700
647.92	2820.700
648.25	2797.800
648.57	2807.700
648.90	2805.200
649.22	2766.700
649.54	2746.400
649.87	2736.000
650.19	2734.500
650.52	2716.200
650.84	2713.100
651.16	2694.000
651.49	2702.100
651.81	2684.900
652.13	2691.800
652.46	2682.100
652.78	2649.700
653.10	2655.300
653.43	2633.500
653.75	2622.500
654.07	2600.700
654.40	2598.700
654.72	2595.500
655.04	2574.300
655.37	2574.500
655.69	2545.900
656.01	2546.500
656.34	2539.800
656.66	2538.700
656.98	2535.300
657.30	2538.400
657.63	2555.600
657.95	2527.000
658.27	2515.200
658.60	2508.100
658.92	2493.900
659.24	2464.700
659.56	2471.300
659.89	2461.000
660.21	2464.100
660.53	2461.500
660.85	2446.000
661.17	2445.200
661.50	2423.000
661.82	2435.200
662.14	2416.500
662.46	2429.800
662.79	2425.700
663.11	2413.700
663.43	2398.800
663.75	2367.100
664.07	2348.900
664.40	2356.900
664.72	2366.900
665.04	2369.900
665.36	2386.400
665.68	2376.700
666.00	2367.600
666.33	2345.000
666.65	2346.500
666.97	2345.500
667.29	2393.400
667.61	2362.600
667.93	2362.200
668.25	2348.200
668.58	2338.800
668.90	2313.800
669.22	2328.900
669.54	2327.000
669.86	2323.100
670.18	2308.300
670.50	2293.400
670.82	2311.500
671.15	2309.500
671.47	2319.400
671.79	2326.800
672.11	2327.600
672.43	2294.300
672.75	2284.900
673.07	2296.900
673.39	2298.600
673.71	2308.900
674.03	2299.000
674.35	2312.400
674.67	2300.500
674.99	2281.400
675.31	2290.800
675.63	2290.200
675.95	2281.300
676.27	2277.300
676.59	2280.500
676.92	2278.300
677.24	2265.500
677.56	2267.800
677.88	2270.900
678.20	2276.800
678.52	2275.800
678.84	2283.200
679.16	2284.700
679.47	2286.900
679.79	2291.800
680.11	2304.000
680.43	2285.600
680.75	2284.000
681.07	2291.600
681.39	2284.800
681.71	2289.300
682.03	2299.800
682.35	2312.500
682.67	2311.700
682.99	2324.300
683.31	2314.200
683.63	2293.100
683.95	2279.600
684.27	2272.500
684.59	2285.700
684.91	2284.300
685.22	2258.700
685.54	2266.500
685.86	2262.600
686.18	2257.700
686.50	2253.100
686.82	2255.200
687.14	2262.000
687.46	2248.400
687.78	2244.000
688.09	2242.800
688.41	2232.100
688.73	2231.800
689.05	2232.500
689.37	2243.600
689.69	2248.500
690.01	2253.900
690.32	2244.100
690.64	2222.600
690.96	2229.400
691.28	2230.100
691.60	2218.100
691.91	2250.800
692.23	2244.500
692.55	2259.900
692.87	2242.500
693.19	2227.700
693.50	2223.300
693.82	2216.600
694.14	2204.200
694.46	2180.700
694.78	2180.900
695.09	2190.500
695.41	2173.300
695.73	2190.700
696.05	2183.100
696.36	2189.300
696.68	2175.900
697.00	2150.300
697.32	2136.500
697.63	2140.000
697.95	2142.800
698.27	2131.200
698.59	2124.300
698.90	2122.700
699.22	2105.600
699.54	2079.600
699.85	2101.000
700.17	2091.600
700.49	2102.700
700.80	2091.800
701.12	2076.500
701.44	2065.800
701.75	2045.500
702.07	2058.600
702.39	2047.000
702.70	2051.300
703.02	2037.900
703.34	2039.000
703.65	2021.400
703.97	2039.800
704.29	1997.200
704.60	2000.500
704.92	1985.000
705.24	1983.100
705.55	1996.300
705.87	1977.500
706.18	1953.500
706.50	1941.300
706.82	1937.400
707.13	1908.300
707.45	1905.300
707.76	1885.800
708.08	1868.000
708.40	1862.100
708.71	1872.900
709.03	1867.000
709.34	1852.700
709.66	1856.800
709.98	1851.800
710.29	1831.300
710.61	1819.800
710.92	1812.000
711.24	1815.500
711.55	1816.500
711.87	1798.600
712.18	1795.200
712.50	1794.600
712.81	1778.500
713.13	1774.600
713.44	1760.200
713.76	1751.800
714.07	1750.100
714.39	1738.600
714.70	1726.600
715.02	1709.200
715.33	1700.700
715.65	1687.300
715.96	1682.000
716.28	1650.300
716.59	1643.400
716.91	1624.400
717.22	1618.600
717.54	1623.600
717.85	1611.200
718.17	1613.100
718.48	1601.400
718.79	1591.000
719.11	1585.000
719.42	1577.000
719.74	1560.700
720.05	1556.100
720.37	1541.600
720.68	1535.300
720.99	1521.200
721.31	1532.700
721.62	1521.500
721.94	1513.100
722.25	1506.900
722.56	1504.800
722.88	1485.800
723.19	1492.800
723.50	1484.900
723.82	1465.300
724.13	1453.000
724.45	1444.100
724.76	1429.300
725.07	1432.400
725.39	1412.800
725.70	1413.500
726.01	1410.600
726.33	1426.100
726.64	1406.700
726.95	1403.000
727.27	1409.000
727.58	1399.400
727.89	1401.800
728.20	1392.900
728.52	1398.200
728.83	1400.000
729.14	1395.800
729.46	1398.600
729.77	1370.700
730.08	1374.500
730.39	1382.100
730.71	1378.800
731.02	1373.300
731.33	1377.200
731.64	1358.900
731.96	1346.300
732.27	1360.000
732.58	1341.400
732.89	1361.100
733.21	1337.000
733.52	1323.900
733.83	1327.900
734.14	1321.600
734.46	1332.300
734.77	1331.500
735.08	1321.400
735.39	1326.200
735.70	1314.900
736.02	1307.500
736.33	1294.000
736.64	1295.000
736.95	1304.600
737.26	1302.400
737.57	1303.700
737.89	1302.300
738.20	1300.300
738.51	1292.700
738.82	1304.000
739.13	1301.900
739.44	1306.200
739.75	1297.200
740.07	1278.400
740.38	1266.900
740.69	1276.300
741.00	1252.800
741.31	1261.200
741.62	1264.900
741.93	1258.400
742.24	1253.600
742.56	1259.600
742.87	1259.100
743.18	1254.500
743.49	1255.700
743.80	1265.700
744.11	1260.700
744.42	1263.300
744.73	1254.100
745.04	1247.200
745.35	1250.000
745.66	1235.900
745.97	1242.300
746.28	1250.500
746.59	1238.500
746.90	1239.500
747.21	1229.400
747.52	1217.200
747.83	1225.600
748.14	1226.000
748.45	1217.700
748.76	1226.900
749.07	1228.800
749.38	1230.800
749.69	1228.700
750.00	1231.200
750.31	1234.300
750.62	1205.200
750.93	1209.600
751.24	1202.900
751.55	1207.300
751.86	1208.900
752.17	1207.800
752.48	1219.600
752.79	1210.500
753.10	1204.900
753.41	1191.600
753.72	1197.800
754.03	1201.300
754.34	1207.900
754.65	1203.200
754.96	1211.900
755.27	1198.900
755.57	1198.600
755.88	1191.200
756.19	1193.600
756.50	1188.200
756.81	1194.100
757.12	1203.100
757.43	1206.900
757.74	1210.700
758.05	1206.300
758.35	1191.300
758.66	1193.100
758.97	1195.100
759.28	1189.500
759.59	1183.500
759.90	1182.900
760.20	1192.300
760.51	1193.700
760.82	1191.300
761.13	1182.800
761.44	1164.200
761.75	1169.100
762.05	1178.800
762.36	1177.600
762.67	1181.000
762.98	1181.700
763.29	1164.400
763.59	1179.100
763.90	1175.700
764.21	1167.200
764.52	1162.300
764.82	1161.500
765.13	1158.500
765.44	1167.500
765.75	1162.400
766.06	1170.800
766.36	1187.000
766.67	1181.500
766.98	1170.900
767.28	1161.500
767.59	1169.600
767.90	1166.500
768.21	1160.600
768.51	1176.100
768.82	1166.200
769.13	1162.400
769.43	1167.100
769.74	1164.800
770.05	1156.400
770.36	1142.700
770.66	1142.900
770.97	1134.100
771.28	1123.300
771.58	1125.400
771.89	1127.900
772.20	1119.100
772.50	1097.200
772.81	1107.700
773.12	1114.100
773.42	1111.000
773.73	1115.000
774.03	1110.400
774.34	1120.300
774.65	1108.800
774.95	1098.600
775.26	1094.000
775.57	1093.100
775.87	1081.900
776.18	1090.300
776.48	1080.500
776.79	1078.300
777.09	1075.400
777.40	1069.000
777.71	1058.900
778.01	1060.100
778.32	1058.500
778.62	1047.500
778.93	1050.200
779.23	1049.800
779.54	1028.000
779.85	1016.800
780.15	1007.700
780.46	1011.100
780.76	1014.500
781.07	1009.800
781.37	1003.800
781.68	997.900
781.98	995.200
782.29	992.900
782.59	984.000
782.90	995.700
783.20	981.400
783.51	984.100
783.81	969.400
784.12	970.000
784.42	955.700
784.73	955.600
785.03	939.600
785.34	937.500
785.64	935.000
785.94	918.500
786.25	914.300
786.55	920.700
786.86	913.200
787.16	912.200
787.47	907.600
787.77	899.700
788.07	901.700
788.38	898.400
788.68	895.900
788.99	882.700
789.29	881.000
789.60	882.800
789.90	874.900
790.20	871.900
790.51	860.900
790.81	862.000
791.11	848.000
791.42	839.900
791.72	834.300
792.03	827.800
792.33	821.500
792.63	826.800
792.94	818.300
793.24	816.300
793.54	807.400
793.85	807.100
794.15	801.400
794.45	810.600
794.76	806.300
795.06	798.300
795.36	798.900
795.66	789.800
795.97	783.200
796.27	781.000
796.57	780.300
796.88	777.600
797.18	770.800
797.48	761.900
797.78	767.000
798.09	760.700
798.39	749.600
798.69	745.900
798.99	738.200
799.30	738.600
799.60	736.900
799.90	727.200
800.20	722.700
800.51	727.700
800.81	723.800
801.11	722.500
801.41	718.500
801.72	711.000
802.02	710.200
802.32	704.300
802.62	703.400
802.92	701.000
803.23	696.500
803.53	694.700
803.83	688.900
804.13	691.900
804.43	689.700
804.73	683.800
805.04	682.100
805.34	673.600
805.64	669.500
805.94	676.100
806.24	664.400
806.54	667.800
806.84	663.400
807.15	664.300
807.45	669.600
807.75	661.200
808.05	653.300
808.35	648.200
808.65	637.700
808.95	639.300
809.25	640.900
809.55	639.600
809.85	637.900
810.16	638.200
810.46	636.400
810.76	619.900
811.06	619.000
811.36	617.900
811.66	617.300
811.96	614.600
812.26	614.400
812.56	610.600
812.86	611.200
813.16	599.700
813.46	602.100
813.76	598.500
814.06	594.400
814.36	594.900
814.66	588.000
814.96	585.800
815.26	579.200
815.56	583.400
815.86	578.100
816.16	579.600
816.46	580.400
816.76	579.800
817.06	576.000
817.36	571.700
817.66	574.500
817.96	569.400
818.26	571.400
818.56	568.700
818.86	560.700
819.16	558.300
819.46	556.100
819.76	556.800
820.05	553.600
820.35	549.800
820.65	550.000
820.95	556.600
821.25	544.700
821.55	548.600
821.85	542.100
822.15	534.700
822.45	531.300
822.75	529.800
823.04	528.200
823.34	529.700
823.64	534.600
823.94	533.600
824.24	530.900
824.54	531.000
824.84	534.800
825.13	528.800
825.43	524.600
825.73	524.400
826.03	521.900
826.33	521.400
826.63	515.100
826.92	525.300
827.22	525.700
827.52	522.000
827.82	522.100
828.12	519.900
828.41	518.200
828.71	510.200
829.01	508.700
829.31	513.000
829.61	512.200
829.90	504.100
830.20	510.100
830.50	503.300
830.80	503.800
831.09	500.000
831.39	503.700
831.69	505.200
831.99	507.600
832.28	497.100
832.58	494.800
832.88	491.200
833.17	489.700
833.47	488.200
833.77	487.600
834.07	489.400
834.36	491.800
834.66	482.700
834.96	479.300
835.25	474.300
835.55	476.700
835.85	477.700
836.14	480.300
836.44	480.900
836.74	476.200
837.03	487.200
837.33	484.700
837.63	488.800
837.92	484.700
838.22	484.800
838.52	477.000
838.81	477.700
839.11	480.700
839.40	483.700
839.70	474.700
840.00	477.800
840.29	472.300
840.59	469.600
840.88	469.300
841.18	472.600
841.48	470.600
841.77	469.200
842.07	472.500
842.36	464.100
842.66	462.100
842.95	460.300
843.25	460.900
843.55	460.600
843.84	459.400
844.14	459.100
844.43	454.400
844.73	455.500
845.02	451.500
845.32	450.500
845.61	454.800
845.91	453.600
846.20	450.800
846.50	449.200
846.79	454.400
847.09	456.200
847.38	453.800
847.68	449.500
847.97	445.800
848.27	449.600
848.56	451.400
848.86	445.200
849.15	442.900
849.45	441.700
849.74	440.500
850.03	432.500
850.33	434.500
850.62	430.200
850.92	431.200
851.21	433.600
851.51	431.800
851.80	433.300
852.09	433.000
852.39	432.800
852.68	428.500
852.98	431.100
853.27	428.300
853.56	425.600
853.86	426.400
854.15	424.900
854.45	418.100
854.74	425.700
855.03	418.800
855.33	418.000
855.62	417.700
855.91	415.500
856.21	420.900
856.50	419.800
856.79	413.600
857.09	415.900
857.38	410.900
857.67	409.300
857.97	407.500
858.26	406.300
858.55	407.900
858.85	406.000
859.14	411.800
859.43	403.300
859.72	405.700
860.02	401.400
860.31	398.700
860.60	399.800
860.90	397.600
861.19	396.300
861.48	398.100
861.77	392.300
862.07	389.500
862.36	391.500
862.65	394.900
862.94	391.700
863.23	392.200
863.53	391.800
863.82	390.500
864.11	386.700
864.40	384.900
864.70	384.700
864.99	383.100
865.28	379.600
865.57	378.300
865.86	374.100
866.16	371.500
866.45	372.700
866.74	374.900
867.03	367.400
867.32	371.100
867.61	372.800
867.90	373.000
868.20	371.400
868.49	370.100
868.78	368.800
869.07	369.600
869.36	367.800
869.65	362.800
869.94	363.100
870.24	359.900
870.53	356.500
870.82	359.300
871.11	353.400
871.40	352.300
871.69	350.700
871.98	350.700
872.27	347.300
872.56	345.900
872.85	345.300
873.14	341.300
873.43	339.000
873.72	340.000
874.02	334.600
>>>>>End Spectral Data<<<<<
